Time	Channel A	Channel B	Channel C
(us)	(V)	(mV)	(mV)

-4.49999956	0.00000000	58.50147000	22.10261000
-4.29999957	0.00000000	58.50147000	22.10261000
-4.09999958	0.00000000	58.50147000	22.10261000
-3.89999959	0.00000000	58.50147000	22.10261000
-3.69999960	0.00000000	58.50147000	22.10261000
-3.49999962	0.00000000	58.50147000	22.10261000
-3.29999963	0.00000000	58.50147000	22.10261000
-3.09999964	0.00000000	58.50147000	22.10261000
-2.89999965	0.00000000	58.54454000	22.10261000
-2.69999966	0.00000000	58.87672000	22.10261000
-2.49999968	0.00000000	59.24582000	22.10261000
-2.29999969	0.00000000	58.87672000	22.10261000
-2.09999970	0.00000000	58.54454000	22.10261000
-1.89999971	0.00000000	58.50147000	22.10261000
-1.69999972	0.00000000	58.50147000	22.10261000
-1.49999973	0.00000000	58.50147000	22.10261000
-1.29999975	0.00000000	58.50147000	22.10261000
-1.09999976	0.00000000	58.50147000	22.10261000
-0.89999977	0.00000000	58.50147000	22.10261000
-0.69999978	0.00000000	58.50147000	22.10261000
-0.49999979	0.00000000	58.50147000	22.10261000
-0.29999981	0.31803640	58.50147000	22.10261000
-0.09999982	0.63668800	58.50147000	22.10261000
0.10000017	0.95533960	58.50147000	22.10261000
0.30000016	0.95533960	58.50147000	22.10261000
0.50000015	0.79601380	58.50147000	22.10261000
0.70000013	0.31803640	58.50147000	22.10261000
0.90000012	-0.47736220	58.50147000	22.10261000
1.10000011	-1.59264300	58.50147000	22.10261000
1.30000010	-2.38927200	58.50147000	22.10261000
1.50000009	-2.70792300	58.50147000	22.10261000
1.70000008	-2.38927200	58.50147000	22.10261000
1.90000006	-1.27399100	58.54454000	22.10261000
2.10000005	0.63668800	58.87672000	22.10261000
2.30000004	2.86724900	59.24582000	22.10261000
2.50000003	4.61921700	58.87672000	22.05955000
2.70000002	5.41584600	58.54454000	21.68430000
2.90000000	4.77854300	58.50147000	20.94611000
3.09999999	2.70792300	58.50147000	20.57087000
3.29999998	-0.31803640	58.50147000	20.57087000
3.49999997	-3.66326300	58.50147000	20.94611000
3.69999996	-6.53112700	58.50147000	21.68430000
3.89999994	-7.96444400	58.50147000	22.05955000
4.09999993	-7.48646600	58.50147000	22.14567000
4.29999992	-4.77854300	58.50147000	22.52091000
4.49999991	-0.79601380	58.50147000	23.21604000
4.69999990	3.50393700	58.50147000	23.21604000
4.89999989	7.32714100	58.50147000	22.52091000
5.09999987	9.39837600	58.50147000	22.10261000
5.29999986	8.92039900	58.50147000	21.68430000
5.49999985	6.37180100	58.50147000	20.94611000
5.69999984	2.07062000	58.50147000	20.57087000
5.89999983	-2.54859700	58.50147000	20.57087000
6.09999981	-6.84916400	58.50147000	20.94611000
6.29999980	-9.23905000	58.50147000	21.68430000
6.49999979	-9.23905000	58.50147000	22.05955000
6.69999978	-7.00848900	58.50147000	22.10261000
6.89999977	-3.18590100	58.50147000	22.10261000
7.09999975	1.27399100	58.50147000	22.10261000
7.29999974	5.09719500	58.50147000	22.10261000
7.49999973	7.32714100	58.50147000	22.10261000
7.69999972	7.64579200	58.50147000	22.05955000
7.89999971	6.21247500	58.50147000	21.68430000
8.09999970	3.18590100	58.50147000	20.98917000
8.29999968	-0.15871060	58.50147000	20.98917000
8.49999967	-3.02657500	58.50147000	21.68430000
8.69999966	-4.77854300	58.50147000	22.05955000
8.89999965	-5.25652100	58.50147000	22.10261000
9.09999964	-4.30056600	58.50147000	22.10261000
9.29999962	-2.54859700	58.50147000	22.10261000
9.49999961	-0.47736220	58.50147000	22.10261000
9.69999960	1.11466500	58.50147000	22.10261000
9.89999959	2.22994600	58.50147000	22.10261000
10.09999958	2.54859700	58.50147000	22.10261000
10.29999956	2.22994600	58.50147000	22.10261000
10.49999955	1.43331700	58.50147000	22.10261000
10.69999954	0.47736220	58.50147000	22.10261000
10.89999953	-0.31803640	58.50147000	22.10261000
11.09999952	-0.79601380	58.50147000	22.05955000
11.29999951	-0.95533960	58.45841000	21.72736000
11.49999949	-0.95533960	58.12622000	21.36442000
11.69999948	-0.63668800	57.75713000	21.72736000
11.89999947	-0.47736220	58.12622000	22.05955000
12.09999946	-0.15871060	58.45841000	22.10261000
12.29999945	-0.15871060	58.50147000	22.10261000
12.49999943	-0.15871060	58.50147000	22.10261000
12.69999942	0.00000000	58.50147000	22.10261000
12.89999941	0.00000000	58.50147000	22.10261000
13.09999940	0.00000000	58.50147000	22.10261000
13.29999939	0.00000000	58.50147000	22.05955000
13.49999937	0.00000000	58.50147000	21.68430000
13.69999936	0.00000000	58.50147000	20.98917000
13.89999935	0.00000000	58.50147000	20.98917000
14.09999934	-0.15871060	58.50147000	21.68430000
14.29999933	-0.15871060	58.50147000	22.05955000
14.49999932	-0.15871060	58.50147000	22.05955000
14.69999930	0.00000000	58.50147000	21.72736000
14.89999929	0.00000000	58.50147000	21.36442000
15.09999928	0.00000000	58.50147000	21.72736000
15.29999927	0.00000000	58.50147000	22.05955000
15.49999926	0.00000000	58.45841000	22.10261000
15.69999924	0.00000000	58.12622000	22.10261000
15.89999923	0.00000000	57.75713000	22.10261000
16.09999922	0.00000000	58.12622000	22.10261000
16.29999921	0.00000000	58.45841000	22.10261000
16.49999920	-0.15871060	58.50147000	22.10261000
16.69999919	-0.15871060	58.50147000	22.10261000
16.89999917	0.00000000	58.54454000	22.10261000
17.09999916	0.00000000	58.91978000	22.10261000
17.29999915	0.00000000	59.66412000	22.10261000
17.49999914	0.00000000	60.03937000	22.10261000
17.69999913	0.00000000	60.03937000	22.10261000
17.89999911	0.00000000	59.61491000	22.10261000
18.09999910	0.00000000	58.45841000	22.10261000
18.29999909	0.00000000	56.92052000	22.10261000
18.49999908	0.00000000	55.38263000	22.10261000
18.69999907	0.00000000	54.22613000	22.10261000
18.89999905	0.00000000	53.85088000	22.10261000
19.09999904	0.00000000	54.22613000	22.10261000
19.29999903	0.00000000	55.47490000	22.10261000
19.49999902	0.00000000	57.80634000	22.10261000
19.69999901	0.00000000	61.33120000	22.10261000
19.89999900	0.00000000	65.15748000	22.10261000
20.09999898	0.00000000	68.59621000	22.10261000
20.29999897	0.00000000	70.04798000	22.10261000
20.49999896	0.00000000	68.51008000	22.10261000
20.69999895	0.00000000	64.22859000	22.10261000
20.89999894	0.00000000	57.99089000	22.10261000
21.09999892	0.00000000	50.63976000	22.10261000
21.29999891	0.00000000	43.71309000	22.05955000
21.49999890	0.00000000	39.10556000	21.72736000
21.69999889	0.00000000	38.02903000	21.32136000
21.89999888	0.00000000	41.61540000	21.35827000
22.09999886	0.00000000	50.17224000	21.27214000
22.29999885	0.00000000	62.13090000	21.35827000
22.49999884	0.00000000	74.87697000	21.32136000
22.69999883	0.00000000	85.21161000	21.72736000
22.89999882	0.00000000	90.18823000	22.05955000
23.09999881	0.00000000	87.81988000	22.10261000
23.29999879	0.00000000	78.51254000	22.14567000
23.49999878	0.00000000	63.71801000	22.52091000
23.69999877	0.00000000	45.93996000	23.26525000
23.89999876	0.00000000	29.05389000	23.64050000
24.09999875	0.00000000	17.88878000	23.64050000
24.29999873	0.00000000	15.60039000	23.21604000
24.49999872	0.00000000	22.63164000	22.05955000
24.69999871	0.00000000	38.53961000	20.52780000
24.89999870	0.00000000	60.13164000	18.94685000
25.09999869	0.00000000	82.14198000	17.40895000
25.29999867	0.00000000	99.49556000	16.29552000
25.49999866	0.00000000	107.91710000	16.33858000
25.69999865	0.00000000	104.79820000	17.87647000
25.89999864	0.00000000	90.52042000	20.61393000
26.09999863	0.00000000	68.51008000	24.10187000
26.29999862	0.00000000	43.75615000	27.95275000
26.49999860	0.00000000	21.78888000	31.02239000
26.69999859	0.00000000	7.88016700	32.56028000
26.89999858	0.00000000	5.55487200	32.09276000
27.09999857	0.00000000	14.81299000	28.93701000
27.29999856	0.00000000	33.74754000	23.08686000
27.49999854	0.00000000	58.08316000	15.40969000
27.69999853	0.00000000	82.00664000	7.75098400
27.89999852	0.00000000	100.19070000	2.73129900
28.09999851	0.00000000	108.34150000	1.19340500
28.29999850	0.00000000	105.30880000	3.61097400
28.49999848	0.00000000	92.18749000	10.62377000
28.69999847	0.00000000	72.09030000	21.08145000
28.89999846	0.00000000	49.70472000	33.02165000
29.09999845	0.00000000	30.02584000	43.75615000
29.29999844	0.00000000	17.97490000	49.88927000
29.49999843	0.00000000	15.50812000	49.88927000
29.69999841	0.00000000	21.65354000	43.66388000
29.89999840	0.00000000	34.81791000	32.04970000
30.09999839	0.00000000	52.22071000	17.36589000
30.29999838	0.00000000	69.99876000	2.68823800
30.49999837	0.00000000	84.32578000	-8.88287400
30.69999835	0.00000000	92.09522000	-14.59769000
30.89999834	0.00000000	92.18749000	-12.64149000
31.09999833	0.00000000	85.30388000	-2.98351400
31.29999832	0.00000000	73.71432000	12.06939000
31.49999831	0.00000000	60.13164000	29.49065000
31.69999829	0.00000000	46.91806000	45.70620000
31.89999828	0.00000000	36.49114000	57.27731000
32.09999827	0.00000000	31.05315000	61.50344000
32.29999826	0.00000000	31.84055000	57.27731000
32.49999825	0.00000000	38.31200000	45.70620000
32.69999824	0.00000000	48.73277000	29.44759000
32.89999822	0.00000000	59.94709000	11.65108000
33.09999821	0.00000000	70.04182000	-4.14616100
33.29999820	0.00000000	76.97465000	-14.17938000
33.49999819	0.00000000	78.93085000	-16.17864000
33.69999818	0.00000000	75.90427000	-10.41462000
33.89999816	0.00000000	69.02066000	1.57480300
34.09999815	0.00000000	60.54995000	17.45817000
34.29999814	0.00000000	52.73130000	34.04897000
34.49999813	0.00000000	46.58587000	47.93922000
34.69999812	0.00000000	43.47933000	55.65329000
34.89999810	0.00000000	44.58661000	55.69635000
35.09999809	0.00000000	48.40674000	48.40059000
35.29999808	0.00000000	54.26919000	35.67298000
35.49999807	0.00000000	61.10974000	20.61393000
35.69999806	0.00000000	66.46161000	6.35457700
35.89999805	0.00000000	68.46703000	-3.67864200
36.09999803	0.00000000	67.34743000	-7.16658400
36.29999802	0.00000000	63.89641000	-3.77091500
36.49999801	0.00000000	58.87672000	5.46875000
36.69999800	0.00000000	53.89394000	17.74114000
36.89999799	0.00000000	50.03691000	30.00738000
37.09999797	0.00000000	48.49901000	38.55192000
37.29999796	0.00000000	49.66166000	41.71998000
37.49999795	0.00000000	53.10654000	40.17593000
37.69999794	0.00000000	58.08316000	33.53838000
37.89999793	0.00000000	62.69069000	23.30832000
38.09999791	0.00000000	65.85260000	12.99828000
38.29999790	0.00000000	67.39050000	6.44069800
38.49999789	0.00000000	66.97219000	4.85974400
38.69999788	0.00000000	64.27164000	8.34768700
38.89999787	0.00000000	60.03937000	16.38164000
39.09999786	0.00000000	55.38263000	26.28568000
39.29999784	0.00000000	51.15034000	34.69488000
39.49999783	0.00000000	48.45595000	38.92716000
39.69999782	0.00000000	48.03149000	37.81373000
39.89999781	0.00000000	49.52633000	32.04970000
40.09999780	0.00000000	52.26993000	23.17298000
40.29999778	0.00000000	55.80708000	13.22589000
40.49999777	0.00000000	60.03937000	5.23499000
40.69999776	0.00000000	63.89641000	2.12229300
40.89999775	0.00000000	66.27091000	4.44143700
41.09999774	0.00000000	67.43970000	11.33120000
41.29999772	0.00000000	66.97219000	21.30905000
41.49999771	0.00000000	64.31471000	30.84399000
41.69999770	0.00000000	60.45767000	37.48154000
41.89999769	0.00000000	56.54527000	39.81299000
42.09999768	0.00000000	52.68823000	37.89985000
42.29999767	0.00000000	49.98769000	32.09276000
42.49999765	0.00000000	49.19414000	23.68356000
42.69999764	0.00000000	49.90157000	15.22515000
42.89999763	0.00000000	51.84547000	9.04896600
43.09999762	0.00000000	54.22613000	6.30536400
43.29999761	0.00000000	57.29576000	7.41879900
43.49999759	0.00000000	60.31618000	11.60187000
43.69999758	0.00000000	61.52805000	17.40895000
43.89999757	0.00000000	61.62032000	23.59129000
44.09999756	0.00000000	61.24508000	28.98007000
44.29999755	0.00000000	60.50073000	32.04970000
44.49999753	0.00000000	60.12549000	32.09276000
44.69999752	0.00000000	60.08243000	29.44759000
44.89999751	0.00000000	60.08243000	25.26452000
45.09999750	0.00000000	60.03937000	21.03838000
45.29999749	0.00000000	59.57185000	17.87647000
45.49999748	0.00000000	58.03395000	15.92027000
45.69999746	0.00000000	55.71481000	15.13902000
45.89999745	0.00000000	53.34030000	15.92027000
46.09999744	0.00000000	50.63976000	17.83341000
46.29999743	0.00000000	48.40674000	20.52780000
46.49999742	0.00000000	48.08071000	23.22219000
46.69999740	0.00000000	49.98769000	25.17224000
46.89999739	0.00000000	53.93700000	26.32874000
47.09999738	0.00000000	59.33809000	26.32874000
47.29999737	0.00000000	65.52657000	25.17224000
47.49999736	0.00000000	70.50935000	23.26525000
47.69999734	0.00000000	73.16068000	20.90305000
47.89999733	0.00000000	72.36712000	18.61466000
48.09999732	0.00000000	67.72268000	16.67077000
48.29999731	0.00000000	60.73450000	15.96334000
48.49999730	0.00000000	52.22071000	16.67077000
48.69999729	0.00000000	44.22367000	18.66388000
48.89999727	0.00000000	39.60999000	21.32136000
49.09999726	0.00000000	39.56693000	24.42790000
49.29999725	0.00000000	43.84842000	26.70398000
49.49999724	0.00000000	51.56865000	27.90969000
49.69999723	0.00000000	61.20201000	27.86663000
49.89999721	0.00000000	70.04182000	26.28568000
50.09999720	0.00000000	75.81815000	23.21604000
50.29999719	0.00000000	76.97465000	19.36516000
50.49999718	0.00000000	73.16068000	15.92027000
50.69999717	0.00000000	65.85260000	13.60113000
50.89999715	0.00000000	56.92052000	13.22589000
51.09999714	0.00000000	48.08071000	14.76378000
51.29999713	0.00000000	41.61540000	17.83341000
51.49999712	0.00000000	40.03444000	21.68430000
51.69999711	0.00000000	43.42396000	25.21530000
51.89999710	0.00000000	49.98769000	28.24188000
52.09999708	0.00000000	58.45841000	29.76747000
52.29999707	0.00000000	66.46161000	28.66018000
52.49999706	0.00000000	71.11835000	26.42101000
52.69999705	0.00000000	71.57972000	23.59129000
52.89999704	0.00000000	68.51008000	20.15256000
53.09999702	0.00000000	62.69069000	16.71383000
53.29999701	0.00000000	55.43184000	14.80684000
53.49999700	0.00000000	48.91732000	14.76378000
53.69999699	0.00000000	45.47243000	16.29552000
53.89999698	0.00000000	45.75541000	18.98991000
54.09999696	0.00000000	49.24335000	22.01649000
54.29999695	0.00000000	54.64444000	24.33563000
54.49999694	0.00000000	61.15280000	25.12918000
54.69999693	0.00000000	66.51082000	24.75394000
54.89999692	0.00000000	68.84227000	23.22219000
55.09999691	0.00000000	68.09177000	20.94611000
55.29999689	0.00000000	64.22859000	19.08218000
55.49999688	0.00000000	58.50147000	18.29478000
55.69999687	0.00000000	52.73130000	19.08218000
55.89999686	0.00000000	48.49901000	20.94611000
56.09999685	0.00000000	46.96112000	23.22219000
56.29999683	0.00000000	48.45595000	24.71087000
56.49999682	0.00000000	52.26993000	24.75394000
56.69999681	0.00000000	56.82825000	23.59129000
56.89999680	0.00000000	60.82677000	21.64124000
57.09999679	0.00000000	63.85950000	18.89764000
57.29999677	0.00000000	65.75418000	15.87721000
57.49999676	0.00000000	64.60383000	13.64419000
57.69999675	0.00000000	61.66338000	13.69340000
57.89999674	0.00000000	58.50147000	16.33858000
58.09999673	0.00000000	55.38263000	20.61393000
58.29999672	0.00000000	52.73130000	25.59055000
58.49999670	0.00000000	51.56865000	30.18578000
58.69999669	0.00000000	52.31299000	32.46801000
58.89999668	0.00000000	54.17691000	32.14198000
59.09999667	0.00000000	56.50221000	29.35531000
59.29999666	0.00000000	58.45841000	24.33563000
59.49999664	0.00000000	59.99015000	17.78420000
59.69999663	0.00000000	60.73450000	11.69414000
59.89999662	0.00000000	60.03937000	7.83710600
60.09999661	0.00000000	58.91978000	7.46801100
60.29999660	0.00000000	58.08316000	10.53150000
60.49999658	0.00000000	56.96358000	16.33858000
60.69999657	0.00000000	56.22539000	23.63435000
60.89999656	0.00000000	56.54527000	30.56102000
61.09999655	0.00000000	56.92052000	35.16240000
61.29999654	0.00000000	57.33883000	36.31890000
61.49999653	0.00000000	58.08316000	33.63066000
61.69999651	0.00000000	58.40920000	27.82357000
61.89999650	0.00000000	58.08316000	20.15256000
62.09999649	0.00000000	57.29576000	12.44464000
62.29999648	0.00000000	56.54527000	7.04355200
62.49999647	0.00000000	55.75787000	4.72440900
62.69999645	0.00000000	55.38263000	6.30536400
62.89999644	0.00000000	55.38263000	11.65108000
63.09999643	0.00000000	55.80708000	18.98991000
63.29999642	0.00000000	56.96358000	26.70398000
63.49999641	0.00000000	58.45841000	33.25541000
63.69999639	0.00000000	59.61491000	36.74335000
63.89999638	0.00000000	59.99015000	36.78642000
64.09999637	0.00000000	59.66412000	33.67372000
64.29999636	0.00000000	58.87672000	27.90969000
64.49999635	0.00000000	58.08316000	20.98917000
64.69999634	0.00000000	56.87746000	14.80684000
64.89999632	0.00000000	55.38263000	10.48843000
65.09999631	0.00000000	54.26919000	8.53838500
65.29999630	0.00000000	54.26919000	8.95669300
65.49999629	0.00000000	55.38263000	12.02018000
65.69999628	0.00000000	56.92052000	16.99065000
65.89999626	0.00000000	58.40920000	22.01033000
66.09999625	0.00000000	59.24582000	26.32874000
66.29999624	0.00000000	59.20890000	29.44759000
66.49999623	0.00000000	58.82135000	31.02239000
66.69999622	0.00000000	57.25270000	31.02239000
66.89999620	0.00000000	55.43184000	29.53371000
67.09999619	0.00000000	54.26919000	27.17150000
67.29999618	0.00000000	54.26919000	24.42790000
67.49999617	0.00000000	55.43184000	20.94611000
67.69999616	0.00000000	57.33883000	17.83341000
67.89999615	0.00000000	59.66412000	15.40969000
68.09999613	0.00000000	61.57111000	13.09055000
68.29999612	0.00000000	62.69069000	11.64493000
68.49999611	0.00000000	62.27239000	12.02018000
68.69999610	0.00000000	59.94709000	14.34547000
68.89999609	0.00000000	56.50221000	17.83341000
69.09999607	0.00000000	52.59596000	22.10261000
69.29999606	0.00000000	49.19414000	26.37795000
69.49999605	0.00000000	47.29330000	29.82283000
69.69999604	0.00000000	48.03149000	31.76673000
69.89999603	0.00000000	50.73204000	31.35457000
70.09999601	0.00000000	54.64444000	29.07234000
70.29999600	0.00000000	59.70718000	25.12918000
70.49999599	0.00000000	64.64690000	20.15256000
70.69999598	0.00000000	68.13484000	15.13902000
70.89999597	0.00000000	68.88533000	11.65108000
71.09999596	0.00000000	66.97219000	10.07013000
71.29999594	0.00000000	62.69069000	10.53765000
71.49999593	0.00000000	56.92052000	13.60113000
71.69999592	0.00000000	51.10728000	18.57160000
71.89999591	0.00000000	46.49975000	23.54823000
72.09999590	0.00000000	44.17446000	27.44832000
72.29999588	0.00000000	44.96186000	29.40452000
72.49999587	0.00000000	48.40674000	29.44759000
72.69999586	0.00000000	53.80167000	27.90969000
72.89999585	0.00000000	59.57185000	25.26452000
73.09999584	0.00000000	64.27164000	22.52091000
73.29999582	0.00000000	67.39050000	20.19562000
73.49999581	0.00000000	68.51008000	18.29478000
73.69999580	0.00000000	66.97219000	17.91953000
73.89999579	0.00000000	63.15822000	18.98991000
74.09999578	0.00000000	58.50147000	20.47859000
74.29999577	0.00000000	53.85088000	21.64124000
74.49999575	0.00000000	49.98769000	22.01033000
74.69999574	0.00000000	48.08071000	21.64124000
74.89999573	0.00000000	48.40674000	20.47859000
75.09999572	0.00000000	50.73204000	19.03912000
75.29999571	0.00000000	54.13385000	18.29478000
75.49999569	0.00000000	57.61565000	19.03912000
75.69999568	0.00000000	59.94709000	20.57087000
75.89999567	0.00000000	61.19586000	22.57013000
76.09999566	0.00000000	61.57111000	25.21530000
76.29999565	0.00000000	61.19586000	27.49138000
76.49999563	0.00000000	60.03937000	28.24188000
76.69999562	0.00000000	58.50147000	27.44832000
76.89999561	0.00000000	56.96358000	24.71087000
77.09999560	0.00000000	55.80708000	20.47859000
77.29999559	0.00000000	55.43184000	15.87721000
77.49999558	0.00000000	55.75787000	12.06939000
77.69999556	0.00000000	56.45300000	10.48843000
77.89999555	0.00000000	56.45300000	11.22662000
78.09999554	0.00000000	55.71481000	13.60113000
78.29999553	0.00000000	54.96432000	17.87647000
78.49999552	0.00000000	54.17691000	23.26525000
78.69999550	0.00000000	53.89394000	28.24188000
78.89999549	0.00000000	54.64444000	31.71752000
79.09999548	0.00000000	56.54527000	32.46801000
79.29999547	0.00000000	58.45841000	30.60408000
79.49999546	0.00000000	60.08243000	26.74705000
79.69999544	0.00000000	61.57111000	22.10261000
79.89999543	0.00000000	62.27239000	17.45817000
80.09999542	0.00000000	61.15280000	13.60113000
80.29999541	0.00000000	58.87672000	11.64493000
80.49999540	0.00000000	56.50221000	11.60187000
80.69999539	0.00000000	53.80167000	13.18282000
80.89999537	0.00000000	51.52559000	16.25246000
81.09999536	0.00000000	50.77510000	20.15256000
81.29999535	0.00000000	51.52559000	23.96653000
81.49999534	0.00000000	53.80167000	27.07308000
81.69999533	0.00000000	56.50221000	28.28494000
81.89999531	0.00000000	58.83366000	28.32800000
82.09999530	0.00000000	60.77756000	27.54060000
82.29999529	0.00000000	61.52805000	25.63976000
82.49999528	0.00000000	61.19586000	23.68356000
82.69999527	0.00000000	59.99015000	21.64124000
82.89999525	0.00000000	58.08316000	18.94685000
83.09999524	0.00000000	55.80708000	16.25246000
83.29999523	0.00000000	54.26919000	14.34547000
83.49999522	0.00000000	53.85088000	13.55807000
83.69999521	0.00000000	54.17691000	14.34547000
83.89999520	0.00000000	54.96432000	16.25246000
84.09999518	0.00000000	55.75787000	18.98991000
84.29999517	0.00000000	56.92052000	22.10261000
84.49999516	0.00000000	57.99089000	25.21530000
84.69999515	0.00000000	58.03395000	27.90969000
84.89999514	0.00000000	57.33883000	29.44759000
85.09999512	0.00000000	56.96358000	29.40452000
85.29999511	0.00000000	56.92052000	27.44832000
85.49999510	0.00000000	56.96358000	23.64050000
85.69999509	0.00000000	57.33883000	19.40822000
85.89999508	0.00000000	58.08316000	15.87721000
86.09999506	0.00000000	58.40920000	13.13976000
86.29999505	0.00000000	58.03395000	11.64493000
86.49999504	0.00000000	56.92052000	12.11245000
86.69999503	0.00000000	55.75787000	15.18209000
86.89999502	0.00000000	54.96432000	20.10950000
87.09999501	0.00000000	54.17691000	24.75394000
87.29999499	0.00000000	53.85088000	28.24188000
87.49999498	0.00000000	54.22613000	30.18578000
87.69999497	0.00000000	55.38263000	29.77362000
87.89999496	0.00000000	56.92052000	27.44832000
88.09999495	0.00000000	58.45841000	23.17298000
88.29999493	0.00000000	59.61491000	17.87647000
88.49999492	0.00000000	59.99015000	13.64419000
88.69999491	0.00000000	59.61491000	11.69414000
88.89999490	0.00000000	58.45841000	12.06939000
89.09999489	0.00000000	56.96358000	14.76378000
89.29999487	0.00000000	55.75787000	18.98991000
89.49999486	0.00000000	54.96432000	23.59129000
89.69999485	0.00000000	54.22613000	27.49138000
89.89999484	0.00000000	54.26919000	29.77362000
90.09999483	0.00000000	55.33957000	30.14272000
90.29999482	0.00000000	56.45300000	27.77436000
90.49999480	0.00000000	56.92052000	23.21604000
90.69999479	0.00000000	57.33883000	17.87647000
90.89999478	0.00000000	58.08316000	13.64419000
91.09999477	0.00000000	58.40920000	11.69414000
91.29999476	0.00000000	58.08316000	12.06939000
91.49999474	0.00000000	57.33883000	14.80684000
91.69999473	0.00000000	56.96358000	19.41437000
91.89999472	0.00000000	56.92052000	24.75394000
92.09999471	0.00000000	56.92052000	28.93701000
92.29999470	0.00000000	56.92052000	30.51796000
92.49999468	0.00000000	56.92052000	29.39837000
92.69999467	0.00000000	56.87746000	26.32874000
92.89999466	0.00000000	56.45300000	22.05955000
93.09999465	0.00000000	55.33957000	17.45817000
93.29999464	0.00000000	54.22613000	13.64419000
93.49999463	0.00000000	53.80167000	12.11245000
93.69999461	0.00000000	53.85088000	13.22589000
93.89999460	0.00000000	54.64444000	16.29552000
94.09999459	0.00000000	56.54527000	20.52780000
94.29999458	0.00000000	58.45841000	24.75394000
94.49999457	0.00000000	60.08243000	27.82357000
94.69999455	0.00000000	61.57111000	28.93701000
94.89999454	0.00000000	62.31545000	27.40526000
95.09999453	0.00000000	61.52805000	23.64050000
95.29999452	0.00000000	59.61491000	19.45743000
95.49999451	0.00000000	56.87746000	16.29552000
95.69999449	0.00000000	53.80167000	14.38853000
95.89999448	0.00000000	51.10728000	14.01944000
96.09999447	0.00000000	49.56939000	15.92027000
96.29999446	0.00000000	49.56939000	18.94685000
96.49999445	0.00000000	51.15034000	22.05955000
96.69999444	0.00000000	54.22613000	24.75394000
96.89999442	0.00000000	58.08316000	26.28568000
97.09999441	0.00000000	61.57111000	26.28568000
97.29999440	0.00000000	64.27164000	24.79700000
97.49999439	0.00000000	65.38509000	22.52091000
97.69999438	0.00000000	64.27164000	20.57087000
97.89999436	0.00000000	61.57111000	18.98991000
98.09999435	0.00000000	58.03395000	17.83341000
98.29999434	0.00000000	53.85088000	17.50123000
98.49999433	0.00000000	50.36294000	18.20251000
98.69999432	0.00000000	48.77583000	19.73425000
98.89999430	0.00000000	48.36368000	20.85384000
99.09999429	0.00000000	49.56939000	21.68430000
99.29999428	0.00000000	52.26993000	22.05955000
99.49999427	0.00000000	55.75787000	22.10261000
99.69999426	0.00000000	59.61491000	22.10261000
99.89999425	0.00000000	62.69069000	22.14567000
100.09999423	0.00000000	64.27164000	22.52091000
100.29999422	0.00000000	64.27164000	23.26525000
100.49999421	0.00000000	62.73376000	23.59129000
100.69999420	0.00000000	60.03937000	23.21604000
100.89999419	0.00000000	56.92052000	22.05955000
101.09999417	0.00000000	53.85088000	20.52780000
101.29999416	0.00000000	51.52559000	18.94685000
101.49999415	0.00000000	50.68897000	17.40895000
101.69999414	0.00000000	50.68897000	16.29552000
101.89999413	0.00000000	51.48252000	16.29552000
102.09999411	0.00000000	53.42642000	17.45817000
102.29999410	0.00000000	55.71481000	19.40822000
102.49999409	0.00000000	58.08316000	22.10261000
102.69999408	0.00000000	59.99015000	24.79700000
102.89999407	0.00000000	61.19586000	26.70398000
103.09999406	0.00000000	61.52805000	27.44832000
103.29999404	0.00000000	60.77756000	26.28568000
103.49999403	0.00000000	58.87672000	23.64050000
103.69999402	0.00000000	56.96358000	20.52780000
103.89999401	0.00000000	55.33957000	17.45817000
104.09999400	0.00000000	53.80167000	15.13902000
104.29999398	0.00000000	52.64517000	14.34547000
104.49999397	0.00000000	52.26993000	14.72072000
104.69999396	0.00000000	52.68823000	16.33858000
104.89999395	0.00000000	54.22613000	19.40822000
105.09999394	0.00000000	56.45300000	23.17298000
105.29999392	0.00000000	57.99089000	25.82431000
105.49999391	0.00000000	58.45841000	26.32874000
105.69999390	0.00000000	58.45841000	25.59055000
105.89999389	0.00000000	58.03395000	24.37869000
106.09999388	0.00000000	56.87746000	22.05955000
106.29999387	0.00000000	55.38263000	19.40822000
106.49999385	0.00000000	54.22613000	17.45817000
106.69999384	0.00000000	53.85088000	16.33858000
106.89999383	0.00000000	54.17691000	16.71383000
107.09999382	0.00000000	55.00738000	18.61466000
107.29999381	0.00000000	56.09006000	20.85384000
107.49999379	0.00000000	57.28961000	22.80389000
107.69999378	0.00000000	57.67101000	23.59129000
107.89999377	0.00000000	58.08316000	23.64050000
108.09999376	0.00000000	57.99089000	23.21604000
108.29999375	0.00000000	56.87746000	22.05955000
108.49999374	0.00000000	55.38263000	20.52780000
108.69999372	0.00000000	54.22613000	18.98991000
108.89999371	0.00000000	53.85088000	17.87647000
109.09999370	0.00000000	54.17691000	17.87647000
109.29999369	0.00000000	54.96432000	18.98991000
109.49999368	0.00000000	55.75787000	20.52780000
109.69999366	0.00000000	56.92052000	22.05955000
109.89999365	0.00000000	58.03395000	23.21604000
110.09999364	0.00000000	58.45841000	23.64050000
110.29999363	0.00000000	58.45841000	23.64050000
110.49999362	0.00000000	58.03395000	23.21604000
110.69999360	0.00000000	56.92052000	22.05955000
110.89999359	0.00000000	55.75787000	20.52780000
111.09999358	0.00000000	54.96432000	19.03912000
111.29999357	0.00000000	54.22613000	18.25172000
111.49999356	0.00000000	54.22613000	18.57160000
111.69999355	0.00000000	54.92125000	18.94685000
111.89999353	0.00000000	55.33957000	19.41437000
112.09999352	0.00000000	55.75787000	20.47859000
112.29999351	0.00000000	56.50221000	21.26599000
112.49999350	0.00000000	56.87746000	21.36442000
112.69999349	0.00000000	56.92052000	22.15182000
112.89999347	0.00000000	56.92052000	23.17298000
113.09999346	0.00000000	56.87746000	23.17298000
113.29999345	0.00000000	56.50221000	22.10261000
113.49999344	0.00000000	55.75787000	20.98917000
113.69999343	0.00000000	55.38263000	20.57087000
113.89999341	0.00000000	55.33957000	20.52780000
114.09999340	0.00000000	55.33957000	20.48474000
114.29999339	0.00000000	55.33957000	20.10950000
114.49999338	0.00000000	55.33957000	19.36516000
114.69999337	0.00000000	55.38263000	18.98991000
114.89999336	0.00000000	55.75787000	18.94685000
115.09999334	0.00000000	56.50221000	18.94685000
115.29999333	0.00000000	56.87746000	18.98991000
115.49999332	0.00000000	56.92052000	19.36516000
115.69999331	0.00000000	56.87746000	20.15256000
115.89999330	0.00000000	56.50221000	20.90305000
116.09999328	0.00000000	55.75787000	21.68430000
116.29999327	0.00000000	55.38263000	22.05955000
116.49999326	0.00000000	55.33957000	22.10261000
116.69999325	0.00000000	55.33957000	22.10261000
116.89999324	0.00000000	55.33957000	22.05955000
117.09999322	0.00000000	55.38263000	21.64124000
117.29999321	0.00000000	55.75787000	20.52780000
117.49999320	0.00000000	56.54527000	19.41437000
117.69999319	0.00000000	57.29576000	18.98991000
117.89999318	0.00000000	58.08316000	18.94685000
118.09999317	0.00000000	58.40920000	18.98991000
118.29999315	0.00000000	58.08316000	19.36516000
118.49999314	0.00000000	57.29576000	20.15256000
118.69999313	0.00000000	56.50221000	20.90305000
118.89999312	0.00000000	55.33957000	21.72736000
119.09999311	0.00000000	54.22613000	22.43479000
119.29999309	0.00000000	53.80167000	22.89001000
119.49999308	0.00000000	53.80167000	22.85310000
119.69999307	0.00000000	54.22613000	22.89001000
119.89999306	0.00000000	55.38263000	22.47785000
120.09999305	0.00000000	56.87746000	22.10261000
120.29999303	0.00000000	58.03395000	21.68430000
120.49999302	0.00000000	58.45841000	20.90305000
120.69999301	0.00000000	58.50147000	20.15256000
120.89999300	0.00000000	58.45841000	19.36516000
121.09999299	0.00000000	58.03395000	18.98991000
121.29999298	0.00000000	56.92052000	18.94685000
121.49999296	0.00000000	55.71481000	18.98991000
121.69999295	0.00000000	54.58907000	19.36516000
121.89999294	0.00000000	53.43873000	20.15256000
122.09999293	0.00000000	53.42642000	20.90305000
122.29999292	0.00000000	53.75861000	21.68430000
122.49999290	0.00000000	54.22613000	22.05955000
122.69999289	0.00000000	55.33957000	22.10261000
122.89999288	0.00000000	56.50221000	22.10261000
123.09999287	0.00000000	57.25270000	22.05955000
123.29999286	0.00000000	57.70792000	21.68430000
123.49999284	0.00000000	57.67101000	20.90305000
123.69999283	0.00000000	57.70792000	20.15256000
123.89999282	0.00000000	57.29576000	19.36516000
124.09999281	0.00000000	56.92052000	18.98991000
124.29999280	0.00000000	56.50221000	18.94685000
124.49999279	0.00000000	55.71481000	18.94685000
124.69999277	0.00000000	54.96432000	18.98991000
124.89999276	0.00000000	54.17691000	19.36516000
125.09999275	0.00000000	53.80167000	20.15256000
125.29999274	0.00000000	53.75861000	20.90305000
125.49999273	0.00000000	53.80167000	21.68430000
125.69999271	0.00000000	54.22613000	22.05955000
125.89999270	0.00000000	55.33957000	22.10261000
126.09999269	0.00000000	56.50221000	22.10261000
126.29999268	0.00000000	57.29576000	22.05955000
126.49999267	0.00000000	58.03395000	21.68430000
126.69999265	0.00000000	58.03395000	20.94611000
126.89999264	0.00000000	57.29576000	20.57087000
127.09999263	0.00000000	56.50221000	20.48474000
127.29999262	0.00000000	55.33957000	20.10950000
127.49999261	0.00000000	54.22613000	19.41437000
127.69999260	0.00000000	53.80167000	19.41437000
127.89999258	0.00000000	53.75861000	20.10950000
128.09999257	0.00000000	53.80167000	20.48474000
128.29999256	0.00000000	54.22613000	20.57087000
128.49999255	0.00000000	55.33957000	20.94611000
128.69999254	0.00000000	56.50221000	21.68430000
128.89999252	0.00000000	57.29576000	22.01033000
129.09999251	0.00000000	58.08316000	21.68430000
129.29999250	0.00000000	58.40920000	20.94611000
129.49999249	0.00000000	58.03395000	20.52780000
129.69999248	0.00000000	56.87746000	20.15256000
129.89999246	0.00000000	55.38263000	19.78346000
130.09999245	0.00000000	54.26919000	20.15256000
130.29999244	0.00000000	54.17691000	20.48474000
130.49999243	0.00000000	54.54601000	20.52780000
130.69999242	0.00000000	54.59522000	20.57087000
130.89999241	0.00000000	55.38263000	20.94611000
131.09999239	0.00000000	56.45300000	21.64124000
131.29999238	0.00000000	56.87746000	21.64124000
131.49999237	0.00000000	56.92052000	20.94611000
131.69999236	0.00000000	56.92052000	20.57087000
131.89999235	0.00000000	56.87746000	20.48474000
132.09999233	0.00000000	56.50221000	20.10950000
132.29999232	0.00000000	55.75787000	19.36516000
132.49999231	0.00000000	55.38263000	19.03912000
132.69999230	0.00000000	55.33957000	19.36516000
132.89999229	0.00000000	55.33957000	20.15256000
133.09999227	0.00000000	55.33957000	20.90305000
133.29999226	0.00000000	55.33957000	21.68430000
133.49999225	0.00000000	55.33957000	22.05955000
133.69999224	0.00000000	55.33957000	22.10261000
133.89999223	0.00000000	55.33957000	22.05955000
134.09999222	0.00000000	55.33957000	21.68430000
134.29999220	0.00000000	55.33957000	20.90305000
134.49999219	0.00000000	55.33957000	20.15256000
134.69999218	0.00000000	55.38263000	19.36516000
134.89999217	0.00000000	55.75787000	18.98991000
135.09999216	0.00000000	56.50221000	18.94685000
135.29999214	0.00000000	56.82825000	18.98991000
135.49999213	0.00000000	56.50221000	19.36516000
135.69999212	0.00000000	55.75787000	20.15256000
135.89999211	0.00000000	55.38263000	20.90305000
136.09999210	0.00000000	55.29650000	21.68430000
136.29999208	0.00000000	54.92125000	22.01033000
136.49999207	0.00000000	54.17691000	21.72736000
136.69999206	0.00000000	53.85088000	21.32136000
136.89999205	0.00000000	54.17691000	21.30905000
137.09999204	0.00000000	54.96432000	20.90305000
137.29999203	0.00000000	55.71481000	20.52780000
137.49999201	0.00000000	56.50221000	20.10950000
137.69999200	0.00000000	56.87746000	19.36516000
137.89999199	0.00000000	56.92052000	18.98991000
138.09999198	0.00000000	56.87746000	18.94685000
138.29999197	0.00000000	56.50221000	18.98991000
138.49999195	0.00000000	55.71481000	19.36516000
138.69999194	0.00000000	54.96432000	20.10950000
138.89999193	0.00000000	54.17691000	20.52780000
139.09999192	0.00000000	53.80167000	20.94611000
139.29999191	0.00000000	53.85088000	21.68430000
139.49999189	0.00000000	54.55216000	22.05955000
139.69999188	0.00000000	55.65944000	22.10261000
139.89999187	0.00000000	55.71481000	22.05955000
140.09999186	0.00000000	55.80708000	21.68430000
140.29999185	0.00000000	56.50221000	20.90305000
140.49999184	0.00000000	56.82825000	20.15256000
140.69999182	0.00000000	56.50221000	19.36516000
140.89999181	0.00000000	55.75787000	18.98991000
141.09999180	0.00000000	55.38263000	18.98991000
141.29999179	0.00000000	55.29650000	19.36516000
141.49999178	0.00000000	54.96432000	20.10950000
141.69999176	0.00000000	54.59522000	20.52780000
141.89999175	0.00000000	54.96432000	20.94611000
142.09999174	0.00000000	55.29650000	21.68430000
142.29999173	0.00000000	55.33957000	22.05955000
142.49999172	0.00000000	55.38263000	22.10261000
142.69999170	0.00000000	55.75787000	22.05955000
142.89999169	0.00000000	56.45300000	21.64124000
143.09999168	0.00000000	56.45300000	20.52780000
143.29999167	0.00000000	55.75787000	19.41437000
143.49999166	0.00000000	55.38263000	18.98991000
143.69999165	0.00000000	55.33957000	18.94685000
143.89999163	0.00000000	55.33957000	18.98991000
144.09999162	0.00000000	55.38263000	19.36516000
144.29999161	0.00000000	55.71481000	20.15256000
144.49999160	0.00000000	56.08390000	20.90305000
144.69999159	0.00000000	55.71481000	21.68430000
144.89999157	0.00000000	55.38263000	22.05955000
145.09999156	0.00000000	55.33957000	22.10261000
145.29999155	0.00000000	55.33957000	22.05955000
145.49999154	0.00000000	55.33957000	21.68430000
145.69999153	0.00000000	55.33957000	20.90305000
145.89999151	0.00000000	55.33957000	20.15256000
146.09999150	0.00000000	55.33957000	19.36516000
146.29999149	0.00000000	55.33957000	18.98991000
146.49999148	0.00000000	55.33957000	18.94685000
146.69999147	0.00000000	55.33957000	18.98991000
146.89999146	0.00000000	55.38263000	19.36516000
147.09999144	0.00000000	55.71481000	20.10950000
147.29999143	0.00000000	56.08390000	20.48474000
147.49999142	0.00000000	55.71481000	20.52780000
147.69999141	0.00000000	55.38263000	20.57087000
147.89999140	0.00000000	55.29650000	20.94611000
148.09999138	0.00000000	54.92125000	21.64124000
148.29999137	0.00000000	54.22613000	21.64124000
148.49999136	0.00000000	54.17691000	20.90305000
148.69999135	0.00000000	54.54601000	20.19562000
148.89999134	0.00000000	54.55216000	19.74040000
149.09999132	0.00000000	54.96432000	19.73425000
149.29999131	0.00000000	55.29650000	19.32210000
149.49999130	0.00000000	55.33957000	19.03912000
149.69999129	0.00000000	55.33957000	19.36516000
149.89999128	0.00000000	55.33957000	20.10950000
150.09999127	0.00000000	55.33957000	20.48474000
150.29999125	0.00000000	55.33957000	20.57087000
150.49999124	0.00000000	55.33957000	20.90305000
150.69999123	0.00000000	55.33957000	21.26599000
150.89999122	0.00000000	55.29650000	20.90305000
151.09999121	0.00000000	54.92125000	20.57087000
151.29999119	0.00000000	54.22613000	20.52780000
151.49999118	0.00000000	54.22613000	20.52780000
151.69999117	0.00000000	54.92125000	20.48474000
151.89999116	0.00000000	55.29650000	20.10950000
152.09999115	0.00000000	55.33957000	19.41437000
152.29999113	0.00000000	55.38263000	19.41437000
152.49999112	0.00000000	55.71481000	20.10950000
152.69999111	0.00000000	56.08390000	20.48474000
152.89999110	0.00000000	55.71481000	20.52780000
153.09999109	0.00000000	55.38263000	20.52780000
153.29999108	0.00000000	55.33957000	20.52780000
153.49999106	0.00000000	55.33957000	20.57087000
153.69999105	0.00000000	55.29650000	20.90305000
153.89999104	0.00000000	54.92125000	21.26599000
154.09999103	0.00000000	54.17691000	20.90305000
154.29999102	0.00000000	53.80167000	20.57087000
154.49999100	0.00000000	53.80167000	20.52780000
154.69999099	0.00000000	54.17691000	20.52780000
154.89999098	0.00000000	54.92125000	20.52780000
155.09999097	0.00000000	55.29650000	20.52780000
155.29999096	0.00000000	55.33957000	20.48474000
155.49999094	0.00000000	55.38263000	20.15256000
155.69999093	0.00000000	55.71481000	19.78346000
155.89999092	0.00000000	56.08390000	20.15256000
156.09999091	0.00000000	55.71481000	20.52780000
156.29999090	0.00000000	55.38263000	20.90305000
156.49999089	0.00000000	55.29650000	21.30905000
156.69999087	0.00000000	54.92125000	21.27214000
156.89999086	0.00000000	54.17691000	21.30905000
157.09999085	0.00000000	53.80167000	20.90305000
157.29999084	0.00000000	53.75861000	20.57087000
157.49999083	0.00000000	53.80167000	20.52780000
157.69999081	0.00000000	54.17691000	20.52780000
157.89999080	0.00000000	54.92125000	20.48474000
158.09999079	0.00000000	55.29650000	20.10950000
158.29999078	0.00000000	55.33957000	19.36516000
158.49999077	0.00000000	55.33957000	18.98991000
158.69999075	0.00000000	55.33957000	18.98991000
158.89999074	0.00000000	55.33957000	19.36516000
159.09999073	0.00000000	55.33957000	20.10950000
159.29999072	0.00000000	55.33957000	20.52780000
159.49999071	0.00000000	55.29650000	20.90305000
159.69999070	0.00000000	54.92125000	21.26599000
159.89999068	0.00000000	54.17691000	20.90305000
160.09999067	0.00000000	53.80167000	20.57087000
160.29999066	0.00000000	53.80167000	20.52780000
160.49999065	0.00000000	54.13385000	20.52780000
160.69999064	0.00000000	54.54601000	20.48474000
160.89999062	0.00000000	54.55216000	20.15256000
161.09999061	0.00000000	54.96432000	19.74040000
161.29999060	0.00000000	55.29650000	19.73425000
161.49999059	0.00000000	55.33957000	19.36516000
161.69999058	0.00000000	55.33957000	19.41437000
161.89999056	0.00000000	55.33957000	20.10950000
162.09999055	0.00000000	55.33957000	20.48474000
162.29999054	0.00000000	55.33957000	20.52780000
162.49999053	0.00000000	55.33957000	20.52780000
162.69999052	0.00000000	55.29650000	20.52780000
162.89999051	0.00000000	54.92125000	20.52780000
163.09999049	0.00000000	54.17691000	20.52780000
163.29999048	0.00000000	53.80167000	20.52780000
163.49999047	0.00000000	53.75861000	20.52780000
163.69999046	0.00000000	53.75861000	20.52780000
163.89999045	0.00000000	53.75861000	20.52780000
164.09999043	0.00000000	53.80167000	20.52780000
164.29999042	0.00000000	54.17691000	20.48474000
164.49999041	0.00000000	54.92125000	20.15256000
164.69999040	0.00000000	55.29650000	19.78346000
164.89999039	0.00000000	55.33957000	20.15256000
165.09999037	0.00000000	55.33957000	20.48474000
165.29999036	0.00000000	55.33957000	20.52780000
165.49999035	0.00000000	55.33957000	20.52780000
165.69999034	0.00000000	55.33957000	20.52780000
165.89999033	0.00000000	55.29650000	20.52780000
166.09999032	0.00000000	54.92125000	20.52780000
166.29999030	0.00000000	54.17691000	20.52780000
166.49999029	0.00000000	53.80167000	20.52780000
166.69999028	0.00000000	53.75861000	20.52780000
166.89999027	0.00000000	53.75861000	20.52780000
167.09999026	0.00000000	53.80167000	20.52780000
167.29999024	0.00000000	54.17691000	20.52780000
167.49999023	0.00000000	54.92125000	20.52780000
167.69999022	0.00000000	55.29650000	20.52780000
167.89999021	0.00000000	55.33957000	20.52780000
168.09999020	0.00000000	55.33957000	20.52780000
168.29999018	0.00000000	55.29650000	20.52780000
168.49999017	0.00000000	54.96432000	20.52780000
168.69999016	0.00000000	54.59522000	20.52780000
168.89999015	0.00000000	54.96432000	20.52780000
169.09999014	0.00000000	55.24729000	20.52780000
169.29999013	0.00000000	54.92125000	20.52780000
169.49999011	0.00000000	54.17691000	20.52780000
169.69999010	0.00000000	53.85088000	20.52780000
169.89999009	0.00000000	54.17691000	20.52780000
170.09999008	0.00000000	54.92125000	20.52780000
170.29999007	0.00000000	55.29650000	20.52780000
170.49999005	0.00000000	55.33957000	20.52780000
170.69999004	0.00000000	55.33957000	20.52780000
170.89999003	0.00000000	55.33957000	20.52780000
171.09999002	0.00000000	55.33957000	20.52780000
171.29999001	0.00000000	55.33957000	20.52780000
171.49998999	0.00000000	55.29650000	20.48474000
171.69998998	0.00000000	54.96432000	20.15256000
171.89998997	0.00000000	54.59522000	19.74040000
172.09998996	0.00000000	54.96432000	19.77731000
172.29998995	0.00000000	55.24729000	19.74040000
172.49998994	0.00000000	54.92125000	20.15256000
172.69998992	0.00000000	54.17691000	20.43553000
172.89998991	0.00000000	53.80167000	20.10950000
173.09998990	0.00000000	53.80167000	19.36516000
173.29998989	0.00000000	54.13385000	19.03912000
173.49998988	0.00000000	54.54601000	19.32210000
173.69998986	0.00000000	54.55216000	19.69119000
173.89998985	0.00000000	54.96432000	19.36516000
174.09998984	0.00000000	55.29650000	19.41437000
174.29998983	0.00000000	55.33957000	20.06029000
174.49998982	0.00000000	55.29650000	20.06029000
174.69998980	0.00000000	54.96432000	19.41437000
174.89998979	0.00000000	54.55216000	19.41437000
175.09998978	0.00000000	54.54601000	20.06029000
175.29998977	0.00000000	54.13385000	20.10950000
175.49998976	0.00000000	53.80167000	19.78346000
175.69998975	0.00000000	53.75861000	20.15256000
175.89998973	0.00000000	53.80167000	20.48474000
176.09998972	0.00000000	54.17691000	20.52780000
176.29998971	0.00000000	54.92125000	20.52780000
176.49998970	0.00000000	55.29650000	20.52780000
176.69998969	0.00000000	55.33957000	20.52780000
176.89998967	0.00000000	55.33957000	20.52780000
177.09998966	0.00000000	55.33957000	20.52780000
177.29998965	0.00000000	55.29650000	20.52780000
177.49998964	0.00000000	54.92125000	20.52780000
177.69998963	0.00000000	54.17691000	20.52780000
177.89998961	0.00000000	53.85088000	20.52780000
178.09998960	0.00000000	54.17691000	20.52780000
178.29998959	0.00000000	54.92125000	20.52780000
178.49998958	0.00000000	55.29650000	20.52780000
178.69998957	0.00000000	55.33957000	20.52780000
178.89998956	0.00000000	55.33957000	20.52780000
179.09998954	0.00000000	55.33957000	20.52780000
179.29998953	0.00000000	55.33957000	20.52780000
179.49998952	0.00000000	55.33957000	20.52780000
179.69998951	0.00000000	55.33957000	20.48474000
179.89998950	0.00000000	55.33957000	20.15256000
180.09998948	0.00000000	55.33957000	19.78346000
180.29998947	0.00000000	55.29650000	20.15256000
180.49998946	0.00000000	54.92125000	20.43553000
180.69998945	0.00000000	54.17691000	20.15256000
180.89998944	0.00000000	53.80167000	19.78346000
181.09998942	0.00000000	53.75861000	20.15256000
181.29998941	0.00000000	53.80167000	20.48474000
181.49998940	0.00000000	54.13385000	20.52780000
181.69998939	0.00000000	54.54601000	20.52780000
181.89998938	0.00000000	54.55216000	20.52780000
182.09998937	0.00000000	54.92125000	20.52780000
182.29998935	0.00000000	54.92125000	20.48474000
182.49998934	0.00000000	54.55216000	20.10950000
182.69998933	0.00000000	54.54601000	19.36516000
182.89998932	0.00000000	54.13385000	18.98991000
183.09998931	0.00000000	53.80167000	18.94685000
183.29998929	0.00000000	53.75861000	18.94685000
183.49998928	0.00000000	53.75861000	18.94685000
183.69998927	0.00000000	53.75861000	18.98991000
183.89998926	0.00000000	53.75861000	19.36516000
184.09998925	0.00000000	53.75861000	20.10950000
184.29998923	0.00000000	53.75861000	20.48474000
184.49998922	0.00000000	53.75861000	20.52780000
184.69998921	0.00000000	53.75861000	20.52780000
184.89998920	0.00000000	53.75861000	20.52780000
185.09998919	0.00000000	53.75861000	20.52780000
185.29998918	0.00000000	53.75861000	20.48474000
185.49998916	0.00000000	53.80167000	20.10950000
185.69998915	0.00000000	54.13385000	19.36516000
185.89998914	0.00000000	54.54601000	19.03912000
186.09998913	0.00000000	54.55216000	19.32210000
186.29998912	0.00000000	54.96432000	19.69119000
186.49998910	0.00000000	55.24729000	19.32210000
186.69998909	0.00000000	54.92125000	18.98991000
186.89998908	0.00000000	54.17691000	18.98991000
187.09998907	0.00000000	53.80167000	19.36516000
187.29998906	0.00000000	53.75861000	20.10950000
187.49998904	0.00000000	53.75861000	20.48474000
187.69998903	0.00000000	53.75861000	20.52780000
187.89998902	0.00000000	53.75861000	20.52780000
188.09998901	0.00000000	53.80167000	20.52780000
188.29998900	0.00000000	54.17691000	20.52780000
188.49998899	0.00000000	54.87204000	20.48474000
188.69998897	0.00000000	54.92125000	20.10950000
188.89998896	0.00000000	54.59522000	19.36516000
189.09998895	0.00000000	54.92125000	18.98991000
189.29998894	0.00000000	54.87204000	18.94685000
189.49998893	0.00000000	54.17691000	18.98991000
189.69998891	0.00000000	53.80167000	19.36516000
189.89998890	0.00000000	53.75861000	20.10950000
190.09998889	0.00000000	53.75861000	20.48474000
190.29998888	0.00000000	53.75861000	20.52780000
190.49998887	0.00000000	53.75861000	20.52780000
190.69998885	0.00000000	53.75861000	20.52780000
190.89998884	0.00000000	53.75861000	20.52780000
191.09998883	0.00000000	53.80167000	20.52780000
191.29998882	0.00000000	54.13385000	20.52780000
191.49998881	0.00000000	54.54601000	20.52780000
191.69998880	0.00000000	54.55216000	20.52780000
191.89998878	0.00000000	54.96432000	20.52780000
192.09998877	0.00000000	55.24729000	20.48474000
192.29998876	0.00000000	54.92125000	20.15256000
192.49998875	0.00000000	54.17691000	19.74040000
192.69998874	0.00000000	53.80167000	19.77731000
192.89998872	0.00000000	53.75861000	19.69734000
193.09998871	0.00000000	53.75861000	19.77731000
193.29998870	0.00000000	53.75861000	19.74040000
193.49998869	0.00000000	53.75861000	20.15256000
193.69998868	0.00000000	53.75861000	20.48474000
193.89998866	0.00000000	53.75861000	20.52780000
194.09998865	0.00000000	53.80167000	20.52780000
194.29998864	0.00000000	54.13385000	20.52780000
194.49998863	0.00000000	54.50295000	20.48474000
194.69998862	0.00000000	54.17691000	20.15256000
194.89998861	0.00000000	54.22613000	19.74040000
195.09998859	0.00000000	54.87204000	19.73425000
195.29998858	0.00000000	54.87204000	19.32210000
195.49998857	0.00000000	54.17691000	18.98991000
195.69998856	0.00000000	53.80167000	18.94685000
195.89998855	0.00000000	53.75861000	18.94685000
196.09998853	0.00000000	53.75861000	18.94685000
