Time	Channel A	Channel B	Channel C
(us)	(V)	(mV)	(mV)

-4.49999956	0.00000000	74.31717000	20.52780000
-4.29999957	0.00000000	74.31717000	20.52780000
-4.09999958	0.00000000	74.31717000	20.52780000
-3.89999959	0.00000000	74.31717000	20.52780000
-3.69999960	0.00000000	74.31717000	20.52780000
-3.49999962	0.00000000	74.31717000	20.52780000
-3.29999963	0.00000000	74.31717000	20.52780000
-3.09999964	0.00000000	74.31717000	20.52780000
-2.89999965	0.00000000	74.31717000	20.52780000
-2.69999966	0.00000000	74.31717000	20.52780000
-2.49999968	0.00000000	74.31717000	20.52780000
-2.29999969	0.00000000	74.31717000	20.52780000
-2.09999970	0.00000000	74.31717000	20.52780000
-1.89999971	0.00000000	74.31717000	20.52780000
-1.69999972	0.00000000	74.31717000	20.52780000
-1.49999973	0.00000000	74.31717000	20.52780000
-1.29999975	0.00000000	74.31717000	20.52780000
-1.09999976	0.00000000	74.31717000	20.52780000
-0.89999977	0.00000000	74.31717000	20.52780000
-0.69999978	0.00000000	74.31717000	20.52780000
-0.49999979	0.00000000	74.31717000	20.52780000
-0.29999981	0.31803640	74.31717000	20.52780000
-0.09999982	0.63668800	74.31717000	20.52780000
0.10000017	0.95533960	74.31717000	20.52780000
0.30000016	0.95533960	74.31717000	20.48474000
0.50000015	0.79601380	74.31717000	20.15256000
0.70000013	0.15871060	74.31717000	19.78346000
0.90000012	-0.63668800	74.31717000	20.10950000
1.10000011	-1.59264300	74.31717000	20.10950000
1.30000010	-2.38927200	74.31717000	19.78346000
1.50000009	-2.86724900	74.31717000	20.15256000
1.70000008	-2.38927200	74.31717000	20.48474000
1.90000006	-1.11466500	74.31717000	20.52780000
2.10000005	0.79601380	74.31717000	20.52780000
2.30000004	2.86724900	74.31717000	20.52780000
2.50000003	4.61921700	74.31717000	20.48474000
2.70000002	5.41584600	74.31717000	20.10950000
2.90000000	4.77854300	74.31717000	19.36516000
3.09999999	2.54859700	74.31717000	18.98991000
3.29999998	-0.47736220	74.31717000	18.94685000
3.49999997	-3.98191400	74.31717000	18.98991000
3.69999996	-6.69045300	74.31717000	19.36516000
3.89999994	-7.96444400	74.31717000	20.10950000
4.09999993	-7.32714100	74.31717000	20.48474000
4.29999992	-4.61921700	74.31717000	20.52780000
4.49999991	-0.47736220	74.31717000	20.52780000
4.69999990	3.82258900	74.31717000	20.52780000
4.89999989	7.48646600	74.31717000	20.52780000
5.09999987	9.39837600	74.31717000	20.48474000
5.29999986	8.92039900	74.31717000	20.10950000
5.49999985	6.05315000	74.31717000	19.36516000
5.69999984	1.91129400	74.31717000	18.98991000
5.89999983	-2.86724900	74.31717000	18.98991000
6.09999981	-7.00848900	74.31717000	19.36516000
6.29999980	-9.23905000	74.31717000	20.10950000
6.49999979	-9.07972400	74.31717000	20.48474000
6.69999978	-6.84916400	74.36023000	20.52780000
6.89999977	-2.86724900	74.69241000	20.52780000
7.09999975	1.43331700	75.06151000	20.52780000
7.29999974	5.25652100	74.69241000	20.52780000
7.49999973	7.32714100	74.36023000	20.48474000
7.69999972	7.64579200	74.31717000	20.10950000
7.89999971	6.05315000	74.31717000	19.41437000
8.09999970	3.02657500	74.31717000	19.36516000
8.29999968	-0.31803640	74.31717000	19.73425000
8.49999967	-3.18590100	74.31717000	19.74040000
8.69999966	-4.93786900	74.31717000	20.15256000
8.89999965	-5.09719500	74.31717000	20.48474000
9.09999964	-4.30056600	74.31717000	20.52780000
9.29999962	-2.38927200	74.31717000	20.52780000
9.49999961	-0.47736220	74.31717000	20.52780000
9.69999960	1.27399100	74.31717000	20.52780000
9.89999959	2.22994600	74.31717000	20.52780000
10.09999958	2.54859700	74.31717000	20.52780000
10.29999956	2.07062000	74.31717000	20.52780000
10.49999955	1.27399100	74.31717000	20.48474000
10.69999954	0.47736220	74.31717000	20.15256000
10.89999953	-0.31803640	74.31717000	19.78346000
11.09999952	-0.79601380	74.31717000	20.15256000
11.29999951	-0.95533960	74.31717000	20.48474000
11.49999949	-0.95533960	74.31717000	20.52780000
11.69999948	-0.63668800	74.31717000	20.48474000
11.89999947	-0.31803640	74.31717000	20.15256000
12.09999946	-0.15871060	74.31717000	19.78346000
12.29999945	-0.15871060	74.31717000	20.15256000
12.49999943	0.00000000	74.31717000	20.48474000
12.69999942	0.00000000	74.31717000	20.52780000
12.89999941	0.00000000	74.31717000	20.48474000
13.09999940	0.00000000	74.31717000	20.15256000
13.29999939	0.00000000	74.31717000	19.78346000
13.49999937	0.00000000	74.31717000	20.15256000
13.69999936	0.00000000	74.31717000	20.48474000
13.89999935	-0.15871060	74.31717000	20.52780000
14.09999934	-0.15871060	74.31717000	20.52780000
14.29999933	-0.15871060	74.31717000	20.48474000
14.49999932	-0.15871060	74.31717000	20.15256000
14.69999930	-0.15871060	74.31717000	19.74040000
14.89999929	0.00000000	74.27411000	19.77731000
15.09999928	0.00000000	73.94193000	19.69734000
15.29999927	0.00000000	73.52977000	19.73425000
15.49999926	0.00000000	73.52361000	19.32210000
15.69999924	0.00000000	73.15452000	19.03912000
15.89999923	0.00000000	73.15452000	19.36516000
16.09999922	0.00000000	73.52361000	20.10950000
16.29999921	-0.15871060	73.52977000	20.48474000
16.49999920	0.00000000	73.94193000	20.52780000
16.69999919	-0.15871060	74.27411000	20.48474000
16.89999917	0.00000000	74.36023000	20.15256000
17.09999916	0.00000000	74.73548000	19.78346000
17.29999915	0.00000000	75.47981000	20.10950000
17.49999914	0.00000000	75.85506000	20.10950000
17.69999913	0.00000000	75.85506000	19.78346000
17.89999911	0.00000000	75.43060000	20.15256000
18.09999910	0.00000000	74.27411000	20.48474000
18.29999909	0.00000000	72.73621000	20.52780000
18.49999908	0.00000000	71.15526000	20.52780000
18.69999907	-0.15871060	69.61736000	20.52780000
18.89999905	0.00000000	68.50394000	20.52780000
19.09999904	0.00000000	68.54699000	20.52780000
19.29999903	0.00000000	70.12794000	20.52780000
19.49999902	0.00000000	73.20374000	20.52780000
19.69999901	0.00000000	77.06077000	20.52780000
19.89999900	0.00000000	80.59792000	20.52780000
20.09999898	0.00000000	83.66756000	20.48474000
20.29999897	0.00000000	85.48228000	20.15256000
20.49999896	0.00000000	84.27657000	19.78346000
20.69999895	0.00000000	80.04429000	20.15256000
20.89999894	0.00000000	73.80659000	20.48474000
21.09999892	0.00000000	66.40624000	20.48474000
21.29999891	0.00000000	59.09818000	20.10950000
21.49999890	0.00000000	53.79552000	19.41437000
21.69999889	0.00000000	52.72514000	19.41437000
21.89999888	0.00000000	57.00049000	20.06029000
22.09999886	0.00000000	65.93873000	20.10950000
22.29999885	0.00000000	77.94044000	19.74040000
22.49999884	0.00000000	90.69267000	19.77731000
22.69999883	0.00000000	101.02730000	19.74040000
22.89999882	0.00000000	106.00390000	20.15256000
23.09999881	0.00000000	103.63560000	20.48474000
23.29999879	0.00000000	94.27903000	20.57087000
23.49999878	0.00000000	79.10925000	20.94611000
23.69999877	0.00000000	60.63607000	21.68430000
23.89999876	0.00000000	43.70079000	22.01033000
24.09999875	0.00000000	32.94783000	21.68430000
24.29999873	0.00000000	31.04700000	20.90305000
24.49999872	0.00000000	39.22859000	20.10950000
24.69999871	0.00000000	55.84399000	18.85458000
24.89999870	0.00000000	77.52214000	16.99065000
25.09999869	0.00000000	99.48942000	15.13902000
25.29999867	0.00000000	116.46780000	14.72072000
25.49999866	-0.15871060	124.15110000	15.40969000
25.69999865	0.00000000	120.65700000	16.29552000
25.89999864	0.00000000	106.28690000	18.33784000
26.09999863	0.00000000	83.90133000	22.14567000
26.29999862	0.00000000	58.45226000	26.37795000
26.49999860	0.00000000	36.48499000	29.82283000
26.69999859	0.00000000	23.27141000	31.67446000
26.89999858	0.00000000	21.36442000	30.46875000
27.09999857	0.00000000	31.04700000	26.24262000
27.29999856	0.00000000	50.72588000	20.01722000
27.49999854	0.00000000	75.38755000	12.67840000
27.69999853	0.00000000	98.97884000	5.75172200
27.89999852	0.00000000	116.38160000	1.10728300
28.09999851	0.00000000	123.77580000	-0.38139760
28.29999850	0.00000000	119.96190000	2.07923200
28.49999848	0.00000000	106.46530000	9.46727400
28.69999847	0.00000000	86.36810000	20.61393000
28.89999846	0.00000000	64.35777000	32.56028000
29.09999845	0.00000000	45.37402000	42.59350000
29.29999844	0.00000000	33.32308000	48.35752000
29.49999843	0.00000000	30.20423000	48.31446000
29.69999841	0.00000000	36.34965000	42.08292000
29.89999840	0.00000000	50.21530000	30.42569000
30.09999839	0.00000000	67.94415000	15.36663000
30.29999838	0.00000000	85.39001000	-0.00615157
30.49999837	0.00000000	98.97884000	-11.57726000
30.69999835	0.00000000	106.42220000	-16.59695000
30.89999834	0.00000000	106.84050000	-14.26550000
31.09999833	0.00000000	100.69510000	-4.51525500
31.29999832	0.00000000	89.43774000	10.86983000
31.49999831	0.00000000	75.56593000	28.65403000
31.69999829	0.00000000	61.98941000	44.45743000
31.89999828	0.00000000	51.93159000	55.32726000
32.09999827	0.00000000	46.81963000	58.76599000
32.29999826	0.00000000	47.60704000	54.16461000
32.49999825	0.00000000	53.75246000	42.50738000
32.69999824	0.00000000	63.79798000	25.91043000
32.89999822	0.00000000	75.34448000	7.79404500
33.09999821	0.00000000	85.39001000	-7.30191900
33.29999820	0.00000000	91.67076000	-16.59695000
33.49999819	0.00000000	93.67002000	-18.54085000
33.69999818	0.00000000	91.67076000	-12.37082000
33.89999816	0.00000000	85.52534000	-0.00615157
34.09999815	0.00000000	76.73474000	16.20940000
34.29999814	0.00000000	68.63311000	32.78789000
34.49999813	0.00000000	62.72760000	45.57086000
34.69999812	0.00000000	59.65797000	52.58366000
34.89999810	0.00000000	60.03321000	52.58366000
35.09999809	0.00000000	63.89025000	45.66314000
35.29999808	0.00000000	69.99261000	33.63066000
35.49999807	0.00000000	76.55019000	18.61466000
35.69999806	0.00000000	81.53297000	4.03543200
35.89999805	0.00000000	83.90133000	-5.63484200
36.09999803	0.00000000	83.11392000	-8.79060000
36.29999802	0.00000000	79.71210000	-5.34571800
36.49999801	0.00000000	74.73548000	3.88779500
36.69999800	0.00000000	70.03568000	16.16018000
36.89999799	0.00000000	66.21555000	28.51870000
37.09999797	0.00000000	63.93946000	37.72145000
37.29999796	0.00000000	65.09595000	41.57849000
37.49999795	0.00000000	68.45472000	38.92716000
37.69999794	0.00000000	72.73621000	30.93627000
37.89999793	0.00000000	77.01156000	20.61393000
38.09999791	0.00000000	80.46259000	10.95595000
38.29999790	0.00000000	82.40649000	4.44143700
38.49999789	0.00000000	81.99433000	2.54675200
38.69999788	0.00000000	79.71210000	6.39763700
38.89999787	0.00000000	75.85506000	14.72072000
39.09999786	0.00000000	71.57356000	24.29257000
39.29999784	0.00000000	67.70422000	32.00664000
39.49999783	0.00000000	64.59769000	36.23277000
39.69999782	0.00000000	63.47195000	35.76525000
39.89999781	0.00000000	64.17323000	30.05044000
40.09999780	0.00000000	66.54158000	20.85384000
40.29999778	0.00000000	70.03568000	11.27584000
40.49999777	0.00000000	74.31717000	3.61097400
40.69999776	0.00000000	78.54945000	0.59055110
40.89999775	0.00000000	81.62524000	3.19266700
41.09999774	0.00000000	82.83096000	10.11319000
41.29999772	0.00000000	82.08661000	19.36516000
41.49999771	0.00000000	80.13041000	28.93701000
41.69999770	0.00000000	76.96850000	35.85752000
41.89999769	0.00000000	72.77928000	38.18897000
42.09999768	0.00000000	68.87303000	35.94980000
42.29999767	0.00000000	66.16634000	29.77362000
42.49999765	0.00000000	64.59153000	21.68430000
42.69999764	0.00000000	65.00369000	13.22589000
42.89999763	0.00000000	66.87376000	6.72367100
43.09999762	0.00000000	69.61736000	4.35531500
43.29999761	0.00000000	72.69316000	5.80093500
43.49999759	0.00000000	75.43060000	10.02707000
43.69999758	0.00000000	77.34374000	15.78494000
43.89999757	0.00000000	78.17421000	21.59203000
44.09999756	0.00000000	77.81126000	26.24262000
44.29999755	0.00000000	77.10384000	28.98007000
44.49999753	0.00000000	76.31644000	29.35531000
44.69999752	0.00000000	75.94118000	27.44832000
44.89999751	0.00000000	75.85506000	23.64050000
45.09999750	0.00000000	75.47981000	19.45743000
45.29999749	0.00000000	74.64935000	16.29552000
45.49999748	0.00000000	73.48056000	14.34547000
45.69999746	0.00000000	71.48744000	13.55807000
45.89999745	0.00000000	69.15600000	14.34547000
46.09999744	0.00000000	66.45546000	16.20325000
46.29999743	0.00000000	64.21629000	18.57160000
46.49999742	0.00000000	63.89025000	20.85384000
46.69999740	0.00000000	65.80339000	22.80389000
46.89999739	0.00000000	69.75270000	23.59129000
47.09999738	0.00000000	75.15379000	23.59129000
47.29999737	0.00000000	81.33611000	22.80389000
47.49999736	0.00000000	86.31889000	20.90305000
47.69999734	0.00000000	88.92716000	18.94685000
47.89999733	0.00000000	87.75835000	16.99065000
48.09999732	0.00000000	82.41879000	15.08981000
48.29999731	0.00000000	75.43060000	14.34547000
48.49999730	0.00000000	67.61810000	14.72072000
48.69999729	0.00000000	59.98400000	16.29552000
48.89999727	0.00000000	55.37647000	18.98991000
49.09999726	0.00000000	55.00122000	22.05955000
49.29999725	0.00000000	58.87056000	24.75394000
49.49999724	0.00000000	66.63385000	26.24262000
49.69999723	0.00000000	76.22416000	25.91043000
49.89999721	0.00000000	85.43307000	23.96653000
50.09999720	0.00000000	91.20325000	21.26599000
50.29999719	0.00000000	92.04601000	17.74114000
50.49999718	0.00000000	88.59498000	14.34547000
50.69999717	0.00000000	81.62524000	11.97711000
50.89999715	0.00000000	72.77928000	11.27584000
51.09999714	0.00000000	64.22243000	12.39542000
51.29999713	0.00000000	57.78789000	15.54503000
51.49999712	0.00000000	55.47490000	19.74040000
51.69999711	0.00000000	58.90747000	24.33563000
51.89999710	0.00000000	65.71111000	27.40526000
52.09999708	0.00000000	73.89886000	28.28494000
52.29999707	0.00000000	81.53297000	27.86663000
52.49999706	0.00000000	86.55265000	25.86737000
52.69999705	0.00000000	87.34621000	22.05955000
52.89999704	0.00000000	84.31963000	17.87647000
53.09999702	0.00000000	78.50639000	14.72072000
53.29999701	0.00000000	71.24138000	12.80758000
53.49999700	0.00000000	64.72686000	12.44464000
53.69999699	0.00000000	61.23892000	14.34547000
53.89999698	0.00000000	61.18971000	17.36589000
54.09999696	0.00000000	64.30856000	20.43553000
54.29999695	0.00000000	70.03568000	22.75467000
54.49999694	0.00000000	76.55019000	23.54823000
54.69999693	0.00000000	81.53297000	23.17298000
54.89999692	0.00000000	83.90133000	21.64124000
55.09999691	0.00000000	83.11392000	19.40822000
55.29999689	0.00000000	79.71210000	17.87647000
55.49999688	0.00000000	74.69241000	17.50123000
55.69999687	0.00000000	69.70964000	18.25172000
55.89999686	0.00000000	65.80339000	20.15256000
56.09999685	0.00000000	63.89025000	22.01649000
56.29999683	0.00000000	64.26550000	23.17298000
56.49999682	0.00000000	67.00910000	23.17298000
56.69999681	0.00000000	71.57356000	21.96727000
56.89999680	0.00000000	76.50713000	19.64198000
57.09999679	0.00000000	79.61983000	16.16018000
57.29999677	0.00000000	80.50565000	12.80758000
57.49999676	0.00000000	80.08734000	10.86368000
57.69999675	0.00000000	78.13115000	11.27584000
57.89999674	0.00000000	74.69241000	13.60113000
58.09999673	0.00000000	71.24754000	17.87647000
58.29999672	0.00000000	68.50394000	23.21604000
58.49999670	0.00000000	67.00910000	27.82357000
58.69999669	0.00000000	67.33513000	30.51181000
58.89999668	0.00000000	69.24213000	30.46875000
59.09999667	0.00000000	71.53051000	27.39911000
59.29999666	0.00000000	73.84965000	22.01033000
59.49999664	0.00000000	75.38755000	15.83415000
59.69999663	0.00000000	75.80585000	10.02707000
59.89999662	0.00000000	75.47981000	5.88705700
60.09999661	0.00000000	74.69241000	5.14886800
60.29999660	0.00000000	73.94193000	8.58144600
60.49999658	0.00000000	73.15452000	14.72072000
60.69999657	0.00000000	72.77928000	22.10261000
60.89999656	0.00000000	72.77928000	29.39837000
61.09999655	0.00000000	73.15452000	34.74409000
61.29999654	0.00000000	73.89886000	36.23277000
61.49999653	0.00000000	74.27411000	33.21235000
61.69999651	0.00000000	74.27411000	26.70398000
61.89999650	0.00000000	73.84965000	18.98991000
62.09999649	0.00000000	72.73621000	11.60187000
62.29999648	0.00000000	71.57356000	5.84399600
62.49999647	0.00000000	70.78001000	3.19266700
62.69999645	0.00000000	70.04182000	4.73056000
62.89999644	0.00000000	70.08488000	10.07013000
63.09999643	0.00000000	71.19833000	17.36589000
63.29999642	0.00000000	72.73621000	24.75394000
63.49999641	0.00000000	74.27411000	30.93627000
63.69999639	0.00000000	75.47981000	34.78716000
63.89999638	0.00000000	76.23032000	35.16240000
64.09999637	0.00000000	76.59325000	32.09276000
64.29999636	0.00000000	75.76279000	26.28568000
64.49999635	0.00000000	73.89886000	18.98991000
64.69999634	0.00000000	71.62278000	12.06939000
64.89999632	0.00000000	70.08488000	7.41879900
65.09999631	0.00000000	69.66658000	5.79478300
65.29999630	0.00000000	70.04182000	6.86515700
65.49999629	0.00000000	71.15526000	9.65182000
65.69999628	0.00000000	72.36097000	13.93332000
65.89999626	0.00000000	73.44365000	19.64198000
66.09999625	0.00000000	74.26181000	24.29257000
66.29999624	0.00000000	73.86195000	27.07923000
66.49999623	0.00000000	73.52361000	28.65403000
66.69999622	0.00000000	72.64394000	28.28494000
66.89999620	0.00000000	71.19833000	26.75320000
67.09999619	0.00000000	70.04182000	24.42790000
67.29999618	0.00000000	69.70964000	21.32136000
67.49999617	0.00000000	70.46014000	18.57160000
67.69999616	0.00000000	72.40403000	15.78494000
67.89999615	0.00000000	74.69241000	13.09055000
68.09999613	0.00000000	77.01156000	11.14050000
68.29999612	0.00000000	78.50639000	10.02707000
68.49999611	0.00000000	78.46333000	10.44537000
68.69999610	0.00000000	76.55019000	12.76452000
68.89999609	0.00000000	73.06840000	16.20325000
69.09999607	0.00000000	69.19906000	20.15256000
69.29999606	0.00000000	65.37893000	24.01575000
69.49999605	0.00000000	63.10285000	27.54060000
69.69999604	0.00000000	63.47195000	29.77362000
69.89999603	0.00000000	65.75418000	30.14272000
70.09999601	0.00000000	69.70964000	27.82357000
70.29999600	0.00000000	74.69241000	23.59129000
70.49999599	0.00000000	79.71210000	18.57160000
70.69999598	0.00000000	83.15698000	13.55807000
70.89999597	0.00000000	84.31963000	10.07013000
71.09999596	0.00000000	82.78174000	8.48917200
71.29999594	0.00000000	78.88164000	8.90747900
71.49999593	0.00000000	73.47440000	11.64493000
71.69999592	0.00000000	67.29208000	16.25246000
71.89999591	0.00000000	62.30930000	21.59203000
72.09999590	0.00000000	59.56569000	25.82431000
72.29999588	0.00000000	59.60876000	27.82357000
72.49999587	0.00000000	62.68454000	27.86663000
72.69999586	0.00000000	68.07948000	26.32874000
72.89999585	0.00000000	74.22490000	23.64050000
73.09999584	0.00000000	79.66904000	20.57087000
73.29999582	0.00000000	83.15698000	17.83341000
73.49999581	0.00000000	84.31963000	15.92027000
73.69999580	0.00000000	82.78174000	15.13902000
73.89999579	0.00000000	78.96776000	15.87721000
74.09999578	0.00000000	74.31717000	17.36589000
74.29999577	0.00000000	69.66043000	18.90379000
74.49999575	0.00000000	65.80339000	20.01722000
74.69999574	0.00000000	63.89025000	20.01722000
74.89999573	0.00000000	64.21629000	18.90379000
75.09999572	0.00000000	66.49852000	17.40895000
75.29999571	0.00000000	69.57431000	16.29552000
75.49999569	0.00000000	72.69316000	16.33858000
75.69999568	0.00000000	75.43060000	17.87647000
75.89999567	0.00000000	77.34374000	20.57087000
76.09999566	0.00000000	78.13115000	23.59129000
76.29999565	0.00000000	77.38681000	25.91043000
76.49999563	0.00000000	75.89813000	26.66092000
76.69999562	0.00000000	74.31717000	25.86737000
76.89999561	0.00000000	72.77928000	23.12992000
77.09999560	0.00000000	71.62278000	18.90379000
77.29999559	0.00000000	71.19833000	14.30241000
77.49999558	0.00000000	71.19833000	10.44537000
77.69999556	0.00000000	71.53051000	8.53838500
77.89999555	0.00000000	71.89960000	8.90747900
78.09999554	0.00000000	71.48744000	11.64493000
78.29999553	0.00000000	70.78001000	16.25246000
78.49999552	0.00000000	69.99261000	21.63509000
78.69999550	0.00000000	69.66658000	26.28568000
78.89999549	0.00000000	70.04182000	29.39837000
79.09999548	0.00000000	71.24754000	30.56102000
79.29999547	0.00000000	73.15452000	29.35531000
79.49999546	0.00000000	75.43060000	25.95964000
79.69999544	0.00000000	76.96850000	21.27214000
79.89999543	0.00000000	77.34374000	16.66462000
80.09999542	0.00000000	76.59325000	12.35236000
80.29999541	0.00000000	74.64935000	9.69488100
80.49999540	0.00000000	72.31791000	8.91363100
80.69999539	0.00000000	69.61736000	10.44537000
80.89999537	0.00000000	67.33513000	13.87795000
81.09999536	0.00000000	66.54158000	17.74114000
81.29999535	0.00000000	66.91682000	21.64124000
81.49999534	0.00000000	68.50394000	24.75394000
81.69999533	0.00000000	71.19833000	26.70398000
81.89999531	0.00000000	74.22490000	27.49138000
82.09999530	0.00000000	76.55019000	26.70398000
82.29999529	0.00000000	77.34374000	24.84621000
82.49999528	0.00000000	77.01156000	22.43479000
82.69999527	0.00000000	75.80585000	19.73425000
82.89999525	0.00000000	73.89886000	16.57849000
83.09999524	0.00000000	71.57356000	13.92101000
83.29999523	0.00000000	69.70964000	11.93405000
83.49999522	0.00000000	68.87917000	11.18356000
83.69999521	0.00000000	69.24213000	11.55881000
83.89999520	0.00000000	69.99261000	13.18282000
84.09999518	0.00000000	71.15526000	16.25246000
84.29999517	0.00000000	72.26870000	20.10950000
84.49999516	0.00000000	72.69316000	23.59129000
84.69999515	0.00000000	72.73621000	26.32874000
84.89999514	0.00000000	72.73621000	27.86663000
85.09999512	0.00000000	72.73621000	27.82357000
85.29999511	0.00000000	72.77928000	25.86737000
85.49999510	0.00000000	73.15452000	22.05955000
85.69999509	0.00000000	73.89886000	17.78420000
85.89999508	0.00000000	74.22490000	13.92717000
86.09999506	0.00000000	73.89886000	10.82062000
86.29999505	0.00000000	73.11147000	9.69488100
86.49999504	0.00000000	72.31791000	10.44537000
86.69999503	0.00000000	71.15526000	13.22589000
86.89999502	0.00000000	70.04182000	17.78420000
87.09999501	0.00000000	69.61736000	22.79773000
87.29999499	0.00000000	69.61736000	26.61786000
87.49999498	0.00000000	70.04182000	28.60482000
87.69999497	0.00000000	71.19833000	28.19267000
87.89999496	0.00000000	72.73621000	25.86737000
88.09999495	0.00000000	74.27411000	21.63509000
88.29999493	0.00000000	75.43060000	16.67077000
88.49999492	0.00000000	75.80585000	12.76452000
88.69999491	0.00000000	75.43060000	10.07013000
88.89999490	0.00000000	74.27411000	9.37500000
89.09999489	0.00000000	72.73621000	11.69414000
89.29999487	0.00000000	71.19833000	16.25246000
89.49999486	0.00000000	70.04182000	21.59203000
89.69999485	0.00000000	69.61736000	25.82431000
89.89999484	0.00000000	69.61736000	27.82357000
90.09999483	0.00000000	70.04182000	27.82357000
90.29999482	0.00000000	71.19833000	25.82431000
90.49999480	0.00000000	72.69316000	21.59203000
90.69999479	0.00000000	73.84965000	16.29552000
90.89999478	0.00000000	74.27411000	12.06939000
91.09999477	0.00000000	74.27411000	10.11319000
91.29999476	0.00000000	73.89886000	10.48843000
91.49999474	0.00000000	73.15452000	13.18282000
91.69999473	0.00000000	72.77928000	17.40895000
91.89999472	0.00000000	72.73621000	22.05955000
92.09999471	0.00000000	72.73621000	26.24262000
92.29999470	0.00000000	72.73621000	28.51870000
92.49999468	0.00000000	72.69316000	27.78051000
92.69999467	0.00000000	72.31791000	24.75394000
92.89999466	0.00000000	71.53051000	20.47859000
93.09999465	0.00000000	70.73695000	15.83415000
93.29999464	0.00000000	69.61736000	11.64493000
93.49999463	0.00000000	68.87917000	9.41806000
93.69999461	0.00000000	69.24213000	10.53765000
93.89999460	0.00000000	69.99261000	14.21014000
94.09999459	0.00000000	71.24754000	18.15330000
94.29999458	0.00000000	73.15452000	21.69660000
94.49999457	0.00000000	75.43060000	25.44906000
94.69999455	0.00000000	76.96850000	26.89468000
94.89999454	0.00000000	77.34374000	25.08612000
95.09999453	0.00000000	76.59325000	21.68430000
95.29999452	0.00000000	74.60014000	17.78420000
95.49999451	0.00000000	71.94266000	14.34547000
95.69999449	0.00000000	68.82996000	12.02018000
95.89999448	0.00000000	66.54158000	11.69414000
96.09999447	0.00000000	65.33588000	13.55807000
96.29999446	0.00000000	65.37893000	16.99065000
96.49999445	0.00000000	66.91682000	20.43553000
96.69999444	0.00000000	69.66043000	23.17298000
96.89999442	0.00000000	73.15452000	24.71087000
97.09999441	0.00000000	76.96850000	24.71087000
97.29999440	0.00000000	79.66904000	23.17298000
97.49999439	0.00000000	80.46259000	20.52780000
97.69999438	0.00000000	79.66904000	17.87647000
97.89999436	0.00000000	76.96850000	16.29552000
98.09999435	0.00000000	73.15452000	15.87721000
98.29999434	0.00000000	69.61736000	16.20325000
98.49999433	0.00000000	66.49852000	16.99065000
98.69999432	0.00000000	64.21629000	17.78420000
98.89999430	0.00000000	63.79798000	18.90379000
99.09999429	0.00000000	64.96062000	19.69119000
99.29999428	0.00000000	67.33513000	19.69734000
99.49999427	0.00000000	71.19833000	19.77731000
99.69999426	0.00000000	75.38755000	19.74040000
99.89999425	0.00000000	78.50639000	20.15256000
100.09999423	0.00000000	80.08734000	20.52780000
100.29999422	0.00000000	80.08734000	20.94611000
100.49999421	0.00000000	78.54945000	21.64124000
100.69999420	0.00000000	75.85506000	21.64124000
100.89999419	0.00000000	72.73621000	20.85384000
101.09999417	0.00000000	69.61736000	19.69119000
101.29999416	0.00000000	66.91682000	17.74114000
101.49999415	0.00000000	65.37893000	15.83415000
101.69999414	0.00000000	65.33588000	14.29626000
101.89999413	0.00000000	66.49852000	13.60113000
102.09999411	0.00000000	68.45472000	14.76378000
102.29999410	0.00000000	71.15526000	17.41511000
102.49999409	0.00000000	73.84965000	20.47859000
102.69999408	0.00000000	75.76279000	23.17298000
102.89999407	0.00000000	76.64246000	24.75394000
103.09999406	0.00000000	76.60555000	25.12918000
103.29999404	0.00000000	76.21800000	24.33563000
103.49999403	0.00000000	74.60014000	22.01649000
103.69999402	0.00000000	72.36097000	18.94685000
103.89999401	0.00000000	70.04182000	15.83415000
104.09999400	0.00000000	68.50394000	13.18282000
104.29999398	0.00000000	68.03641000	12.02018000
104.49999397	0.00000000	68.03641000	12.76452000
104.69999396	0.00000000	68.46087000	14.72072000
104.89999395	0.00000000	69.66658000	17.78420000
105.09999394	0.00000000	71.53051000	21.22293000
105.29999392	0.00000000	73.43134000	23.54823000
105.49999391	0.00000000	74.22490000	24.75394000
105.69999390	0.00000000	74.27411000	24.71087000
105.89999389	0.00000000	73.84965000	23.17298000
106.09999388	0.00000000	72.73621000	20.52780000
106.29999387	0.00000000	71.57356000	17.83341000
106.49999385	0.00000000	70.78001000	15.87721000
106.69999384	0.00000000	69.99261000	14.72072000
106.89999383	0.00000000	69.66658000	14.72072000
107.09999382	0.00000000	70.04182000	15.87721000
107.29999381	0.00000000	71.15526000	17.78420000
107.49999379	0.00000000	72.31791000	20.06029000
107.69999378	0.00000000	73.06840000	21.54897000
107.89999377	0.00000000	73.43134000	21.64124000
108.09999376	0.00000000	72.69316000	20.85384000
108.29999375	0.00000000	71.57356000	19.73425000
108.49999374	0.00000000	70.78001000	18.15945000
108.69999372	0.00000000	69.99261000	17.03371000
108.89999371	0.00000000	69.61736000	16.25246000
109.09999370	0.00000000	69.61736000	16.29552000
109.29999369	0.00000000	70.04182000	17.36589000
109.49999368	0.00000000	71.15526000	18.57160000
109.69999366	0.00000000	72.31791000	19.78346000
109.89999365	0.00000000	73.11147000	21.64124000
110.09999364	0.00000000	73.84965000	22.75467000
110.29999363	0.00000000	73.84965000	22.38558000
110.49999362	0.00000000	73.11147000	21.26599000
110.69999360	0.00000000	72.36097000	19.36516000
110.89999359	0.00000000	71.53051000	17.83341000
111.09999358	0.00000000	70.78001000	16.99065000
111.29999357	0.00000000	69.99261000	16.20325000
111.49999356	0.00000000	69.66658000	15.87721000
111.69999355	0.00000000	69.99261000	16.25246000
111.89999353	0.00000000	70.82307000	17.36589000
112.09999352	0.00000000	71.90575000	18.52854000
112.29999351	0.00000000	73.05610000	19.32210000
112.49999350	0.00000000	73.06840000	20.10950000
112.69999349	0.00000000	72.77928000	20.48474000
112.89999347	0.00000000	72.73621000	20.52780000
113.09999346	0.00000000	72.69316000	20.48474000
113.29999345	0.00000000	72.31791000	20.10950000
113.49999344	0.00000000	71.57356000	19.36516000
113.69999343	0.00000000	71.19833000	18.98991000
113.89999341	0.00000000	71.15526000	18.94685000
114.09999340	0.00000000	71.15526000	18.90379000
114.29999339	0.00000000	71.15526000	18.52854000
114.49999338	0.00000000	71.15526000	17.78420000
114.69999337	0.00000000	71.15526000	17.40895000
114.89999336	0.00000000	71.15526000	17.36589000
115.09999334	0.00000000	71.19833000	17.36589000
115.29999333	0.00000000	71.53051000	17.36589000
115.49999332	0.00000000	71.94266000	17.40895000
115.69999331	0.00000000	71.90575000	17.78420000
115.89999330	0.00000000	71.94266000	18.57160000
116.09999328	0.00000000	71.53051000	19.32210000
116.29999327	0.00000000	71.19833000	20.10950000
116.49999326	0.00000000	71.15526000	20.48474000
116.69999325	0.00000000	71.15526000	20.48474000
116.89999324	0.00000000	71.15526000	20.10950000
117.09999322	0.00000000	71.19833000	19.32210000
117.29999321	0.00000000	71.57356000	18.52854000
117.49999320	0.00000000	72.31791000	17.36589000
117.69999319	0.00000000	72.73621000	16.25246000
117.89999318	0.00000000	73.11147000	15.87721000
118.09999317	0.00000000	73.48056000	16.20325000
118.29999315	0.00000000	73.06840000	16.94759000
118.49999314	0.00000000	72.36097000	17.36589000
118.69999313	0.00000000	71.53051000	17.83341000
118.89999312	0.00000000	70.73695000	18.94685000
119.09999311	0.00000000	69.57431000	20.06029000
119.29999309	0.00000000	68.50394000	20.48474000
119.49999308	0.00000000	68.46087000	20.52780000
119.69999307	0.00000000	69.19906000	20.48474000
119.89999306	0.00000000	69.99261000	20.10950000
120.09999305	0.00000000	71.19833000	19.32210000
120.29999303	0.00000000	72.69316000	18.57160000
120.49999302	0.00000000	73.84965000	17.78420000
120.69999301	0.00000000	74.27411000	17.40895000
120.89999300	0.00000000	74.27411000	17.36589000
121.09999299	0.00000000	73.84965000	17.36589000
121.29999298	0.00000000	72.69316000	17.36589000
121.49999296	0.00000000	71.19833000	17.40895000
121.69999295	0.00000000	69.99261000	17.78420000
121.89999294	0.00000000	69.19906000	18.52854000
122.09999293	0.00000000	68.41166000	18.94685000
122.29999292	0.00000000	68.08563000	19.36516000
122.49999290	0.00000000	68.46087000	20.06029000
122.69999289	0.00000000	69.61736000	20.10950000
122.89999288	0.00000000	71.11221000	19.78346000
123.09999287	0.00000000	72.31791000	20.10950000
123.29999286	0.00000000	73.11147000	20.10950000
123.49999284	0.00000000	73.89886000	19.69734000
123.69999283	0.00000000	74.22490000	19.31594000
123.89999282	0.00000000	73.89886000	18.15945000
124.09999281	0.00000000	73.11147000	17.45817000
124.29999280	0.00000000	72.31791000	17.36589000
124.49999279	0.00000000	71.15526000	17.40895000
124.69999277	0.00000000	70.04182000	17.78420000
124.89999276	0.00000000	69.61736000	18.52854000
125.09999275	0.00000000	69.57431000	18.90379000
125.29999274	0.00000000	69.57431000	18.98991000
125.49999273	0.00000000	69.61736000	19.36516000
125.69999271	0.00000000	70.04182000	20.10950000
125.89999270	0.00000000	71.15526000	20.48474000
126.09999269	0.00000000	72.31791000	20.52780000
126.29999268	0.00000000	73.11147000	20.48474000
126.49999267	0.00000000	73.89886000	20.10950000
126.69999265	0.00000000	74.22490000	19.36516000
126.89999264	0.00000000	73.84965000	18.94685000
127.09999263	0.00000000	72.69316000	18.52854000
127.29999262	0.00000000	71.19833000	17.78420000
127.49999261	0.00000000	70.04182000	17.40895000
127.69999260	0.00000000	69.61736000	17.40895000
127.89999258	0.00000000	69.57431000	17.78420000
128.09999257	0.00000000	69.61736000	18.52854000
128.29999256	0.00000000	69.99261000	18.90379000
128.49999255	0.00000000	70.78001000	18.94685000
128.69999254	0.00000000	71.57356000	18.94685000
128.89999252	0.00000000	72.69316000	18.94685000
129.09999251	0.00000000	73.43134000	18.94685000
129.29999250	0.00000000	73.06840000	18.90379000
129.49999249	0.00000000	72.36097000	18.52854000
129.69999248	0.00000000	71.53051000	17.78420000
129.89999246	0.00000000	70.78001000	17.40895000
130.09999245	0.00000000	69.99261000	17.40895000
130.29999244	0.00000000	69.61736000	17.78420000
130.49999243	0.00000000	69.57431000	18.52854000
130.69999242	0.00000000	69.61736000	18.90379000
130.89999241	0.00000000	70.04182000	18.94685000
131.09999239	0.00000000	71.15526000	18.94685000
131.29999238	0.00000000	72.26870000	18.94685000
131.49999237	0.00000000	72.69316000	18.90379000
131.69999236	0.00000000	72.69316000	18.52854000
131.89999235	0.00000000	72.31791000	17.78420000
132.09999233	0.00000000	71.57356000	17.45817000
132.29999232	0.00000000	71.15526000	17.74114000
132.49999231	0.00000000	70.73695000	18.15330000
132.69999230	0.00000000	70.04182000	18.15945000
132.89999229	0.00000000	70.04182000	18.57160000
133.09999227	0.00000000	70.73695000	18.94685000
133.29999226	0.00000000	71.11221000	19.36516000
133.49999225	0.00000000	71.15526000	20.10950000
133.69999224	0.00000000	71.15526000	20.43553000
133.89999223	0.00000000	71.15526000	20.10950000
134.09999222	0.00000000	71.15526000	19.32210000
134.29999220	0.00000000	71.15526000	18.57160000
134.49999219	0.00000000	71.15526000	17.78420000
134.69999218	0.00000000	71.15526000	17.36589000
134.89999217	0.00000000	71.19833000	16.99065000
135.09999216	0.00000000	71.57356000	16.62155000
135.29999214	0.00000000	72.26870000	16.99065000
135.49999213	0.00000000	72.26870000	17.36589000
135.69999212	0.00000000	71.57356000	17.78420000
135.89999211	0.00000000	71.19833000	18.57160000
136.09999210	0.00000000	71.11221000	19.32210000
136.29999208	0.00000000	70.73695000	20.10950000
136.49999207	0.00000000	69.99261000	20.43553000
136.69999206	0.00000000	69.61736000	20.10950000
136.89999205	0.00000000	69.61736000	19.36516000
137.09999204	0.00000000	69.99261000	18.94685000
137.29999203	0.00000000	70.78001000	18.52854000
137.49999201	0.00000000	71.53051000	17.78420000
137.69999200	0.00000000	72.31791000	17.40895000
137.89999199	0.00000000	72.64394000	17.32283000
138.09999198	0.00000000	72.31791000	16.99065000
138.29999197	0.00000000	71.57356000	16.62155000
138.49999195	0.00000000	71.15526000	17.03371000
138.69999194	0.00000000	70.73695000	17.74114000
138.89999193	0.00000000	69.99261000	18.52854000
139.09999192	0.00000000	69.61736000	18.94685000
139.29999191	0.00000000	69.61736000	19.36516000
139.49999189	0.00000000	69.99261000	20.10950000
139.69999188	0.00000000	70.73695000	20.43553000
139.89999187	0.00000000	71.15526000	20.10950000
140.09999186	0.00000000	71.57356000	19.32210000
140.29999185	0.00000000	72.26870000	18.57160000
140.49999184	0.00000000	72.26870000	17.78420000
140.69999182	0.00000000	71.57356000	17.36589000
140.89999181	0.00000000	71.15526000	16.94759000
141.09999180	0.00000000	70.73695000	16.25246000
141.29999179	0.00000000	69.99261000	16.29552000
141.49999178	0.00000000	69.61736000	17.36589000
141.69999176	0.00000000	69.61736000	18.52854000
141.89999175	0.00000000	69.99261000	19.32210000
142.09999174	0.00000000	70.73695000	20.10950000
142.29999173	0.00000000	71.11221000	20.48474000
142.49999172	0.00000000	71.15526000	20.48474000
142.69999170	0.00000000	71.15526000	20.10950000
142.89999169	0.00000000	71.15526000	19.32210000
143.09999168	0.00000000	71.15526000	18.57160000
143.29999167	0.00000000	71.11221000	17.74114000
143.49999166	0.00000000	70.73695000	17.03371000
143.69999165	0.00000000	70.04182000	16.62155000
143.89999163	0.00000000	69.99261000	16.99065000
144.09999162	0.00000000	70.36171000	17.36589000
144.29999161	0.00000000	70.36786000	17.78420000
144.49999160	0.00000000	70.78001000	18.57160000
144.69999159	0.00000000	71.11221000	19.32210000
144.89999157	0.00000000	71.15526000	20.10950000
145.09999156	0.00000000	71.15526000	20.48474000
145.29999155	0.00000000	71.15526000	20.48474000
145.49999154	0.00000000	71.11221000	20.10950000
145.69999153	0.00000000	70.73695000	19.32210000
145.89999151	0.00000000	69.99261000	18.57160000
146.09999150	0.00000000	69.61736000	17.78420000
146.29999149	0.00000000	69.61736000	17.40895000
146.49999148	0.00000000	69.99261000	17.36589000
146.69999147	0.00000000	70.73695000	17.36589000
146.89999146	0.00000000	71.11221000	17.40895000
147.09999144	0.00000000	71.15526000	17.78420000
147.29999143	0.00000000	71.15526000	18.52854000
147.49999142	0.00000000	71.15526000	18.90379000
147.69999141	0.00000000	71.15526000	18.94685000
147.89999140	0.00000000	71.11221000	18.94685000
148.09999138	0.00000000	70.73695000	18.94685000
148.29999137	0.00000000	69.99261000	18.94685000
148.49999136	0.00000000	69.61736000	18.90379000
148.69999135	0.00000000	69.61736000	18.57160000
148.89999134	0.00000000	69.99261000	18.11639000
149.09999132	0.00000000	70.73695000	17.77805000
149.29999131	0.00000000	71.11221000	16.99680000
149.49999130	0.00000000	71.15526000	17.03371000
149.69999129	0.00000000	71.15526000	17.36589000
149.89999128	0.00000000	71.15526000	17.78420000
150.09999127	0.00000000	71.15526000	18.52854000
150.29999125	0.00000000	71.15526000	18.90379000
150.49999124	0.00000000	71.11221000	18.98991000
150.69999123	0.00000000	70.78001000	19.32210000
150.89999122	0.00000000	70.36786000	19.69119000
151.09999121	0.00000000	70.36171000	19.27903000
151.29999119	0.00000000	69.94955000	18.57160000
151.49999118	0.00000000	69.61736000	17.78420000
151.69999117	0.00000000	69.61736000	17.45817000
151.89999116	0.00000000	69.99261000	17.78420000
152.09999115	0.00000000	70.73695000	18.47933000
152.29999113	0.00000000	71.11221000	18.47933000
152.49999112	0.00000000	71.15526000	17.78420000
152.69999111	0.00000000	71.15526000	17.45817000
152.89999110	0.00000000	71.15526000	17.78420000
153.09999109	0.00000000	71.15526000	18.52854000
153.29999108	0.00000000	71.11221000	18.90379000
153.49999106	0.00000000	70.73695000	18.94685000
153.69999105	0.00000000	69.99261000	18.94685000
153.89999104	0.00000000	69.61736000	18.94685000
154.09999103	0.00000000	69.57431000	18.94685000
154.29999102	0.00000000	69.57431000	18.94685000
154.49999100	0.00000000	69.57431000	18.94685000
154.69999099	0.00000000	69.61736000	18.94685000
154.89999098	0.00000000	69.99261000	18.90379000
155.09999097	0.00000000	70.73695000	18.52854000
155.29999096	0.00000000	71.11221000	17.78420000
155.49999094	0.00000000	71.15526000	17.45817000
155.69999093	0.00000000	71.15526000	17.74114000
155.89999092	0.00000000	71.15526000	18.11024000
156.09999091	0.00000000	71.15526000	17.78420000
156.29999090	0.00000000	71.11221000	17.83341000
156.49999089	0.00000000	70.73695000	18.52854000
156.69999087	0.00000000	69.99261000	18.94685000
156.89999086	0.00000000	69.61736000	19.32210000
157.09999085	0.00000000	69.57431000	19.69119000
157.29999084	0.00000000	69.57431000	19.32210000
157.49999083	0.00000000	69.57431000	18.98991000
157.69999081	0.00000000	69.61736000	18.90379000
157.89999080	0.00000000	69.99261000	18.52854000
158.09999079	0.00000000	70.73695000	17.78420000
158.29999078	0.00000000	71.11221000	17.40895000
158.49999077	0.00000000	71.15526000	17.36589000
158.69999075	0.00000000	71.15526000	17.36589000
158.89999074	0.00000000	71.15526000	17.40895000
159.09999073	0.00000000	71.15526000	17.78420000
159.29999072	0.00000000	71.11221000	18.52854000
159.49999071	0.00000000	70.78001000	18.94685000
159.69999070	0.00000000	70.36786000	19.32210000
159.89999068	0.00000000	70.36171000	19.69119000
160.09999067	0.00000000	69.94955000	19.32210000
160.29999066	0.00000000	69.61736000	18.98991000
160.49999065	0.00000000	69.57431000	18.94685000
160.69999064	0.00000000	69.61736000	18.90379000
160.89999062	0.00000000	69.99261000	18.52854000
161.09999061	0.00000000	70.73695000	17.78420000
161.29999060	0.00000000	71.11221000	17.40895000
161.49999059	0.00000000	71.15526000	17.36589000
161.69999058	0.00000000	71.15526000	17.40895000
161.89999056	0.00000000	71.15526000	17.78420000
162.09999055	0.00000000	71.15526000	18.52854000
162.29999054	0.00000000	71.15526000	18.90379000
162.49999053	0.00000000	71.11221000	18.94685000
162.69999052	0.00000000	70.73695000	18.94685000
162.89999051	0.00000000	69.99261000	18.94685000
163.09999049	0.00000000	69.61736000	18.94685000
163.29999048	0.00000000	69.57431000	18.90379000
163.49999047	0.00000000	69.57431000	18.52854000
163.69999046	0.00000000	69.57431000	17.78420000
163.89999045	0.00000000	69.57431000	17.45817000
164.09999043	0.00000000	69.61736000	17.74114000
164.29999042	0.00000000	69.99261000	18.11024000
164.49999041	0.00000000	70.73695000	17.74114000
164.69999040	0.00000000	71.11221000	17.40895000
164.89999039	0.00000000	71.15526000	17.36589000
165.09999037	0.00000000	71.15526000	17.40895000
165.29999036	0.00000000	71.15526000	17.78420000
165.49999035	0.00000000	71.11221000	18.52854000
165.69999034	0.00000000	70.78001000	18.90379000
165.89999033	0.00000000	70.36786000	18.94685000
166.09999032	0.00000000	70.36171000	18.94685000
166.29999030	0.00000000	69.94955000	18.94685000
166.49999029	0.00000000	69.61736000	18.90379000
166.69999028	0.00000000	69.61736000	18.57160000
166.89999027	0.00000000	69.94955000	18.15945000
167.09999026	0.00000000	70.31865000	18.15330000
167.29999024	0.00000000	69.99261000	17.74114000
167.49999023	0.00000000	69.99261000	17.40895000
167.69999022	0.00000000	70.36171000	17.36589000
167.89999021	0.00000000	70.36786000	17.40895000
168.09999020	0.00000000	70.78001000	17.74114000
168.29999018	0.00000000	71.11221000	18.11024000
168.49999017	0.00000000	71.15526000	17.78420000
168.69999016	0.00000000	71.15526000	17.78420000
168.89999015	0.00000000	71.11221000	18.11024000
169.09999014	0.00000000	70.73695000	17.74114000
169.29999013	0.00000000	69.99261000	17.45817000
169.49999011	0.00000000	69.61736000	17.78420000
169.69999010	0.00000000	69.57431000	18.52854000
169.89999009	0.00000000	69.61736000	18.90379000
170.09999008	0.00000000	69.94955000	18.94685000
170.29999007	0.00000000	70.36171000	18.94685000
170.49999005	0.00000000	70.32480000	18.94685000
170.69999004	0.00000000	70.40477000	18.90379000
170.89999003	0.00000000	70.36786000	18.52854000
171.09999002	0.00000000	70.78001000	17.83341000
171.29999001	0.00000000	71.11221000	17.83341000
171.49998999	0.00000000	71.15526000	18.52854000
171.69998998	0.00000000	71.11221000	18.85458000
171.89998997	0.00000000	70.73695000	18.52854000
172.09998996	0.00000000	69.99261000	17.78420000
172.29998995	0.00000000	69.66658000	17.45817000
172.49998994	0.00000000	69.94955000	17.78420000
172.69998992	0.00000000	70.31865000	18.52854000
172.89998991	0.00000000	69.94955000	18.85458000
173.09998990	0.00000000	69.61736000	18.52854000
173.29998989	0.00000000	69.57431000	17.83341000
173.49998988	0.00000000	69.57431000	17.78420000
173.69998986	0.00000000	69.57431000	18.11024000
173.89998985	-0.15871060	69.61736000	17.74114000
174.09998984	0.00000000	69.99261000	17.45817000
174.29998983	0.00000000	70.68774000	17.74114000
174.49998982	0.00000000	70.68774000	18.11024000
174.69998980	0.00000000	69.99261000	17.74114000
174.89998979	0.00000000	69.61736000	17.45817000
175.09998978	0.00000000	69.57431000	17.74114000
175.29998977	0.00000000	69.57431000	18.11024000
175.49998976	0.00000000	69.57431000	17.78420000
175.69998975	0.00000000	69.61736000	17.83341000
175.89998973	0.00000000	69.99261000	18.47933000
176.09998972	0.00000000	70.68774000	18.47933000
176.29998971	0.00000000	70.68774000	17.83341000
176.49998970	0.00000000	69.99261000	17.78420000
176.69998969	0.00000000	69.61736000	18.15330000
176.89998967	0.00000000	69.57431000	18.11639000
177.09998966	0.00000000	69.61736000	18.15330000
177.29998965	0.00000000	69.94955000	17.74114000
177.49998964	0.00000000	70.31865000	17.40895000
177.69998963	0.00000000	69.94955000	17.36589000
177.89998961	0.00000000	69.61736000	17.36589000
178.09998960	0.00000000	69.57431000	17.36589000
178.29998959	0.00000000	69.57431000	17.36589000
178.49998958	0.00000000	69.57431000	17.40895000
178.69998957	0.00000000	69.57431000	17.78420000
178.89998956	0.00000000	69.57431000	18.52854000
179.09998954	0.00000000	69.57431000	18.90379000
179.29998953	0.00000000	69.61736000	18.90379000
179.49998952	0.00000000	69.99261000	18.52854000
179.69998951	0.00000000	70.68774000	17.78420000
179.89998950	0.00000000	70.68774000	17.40895000
180.09998948	0.00000000	69.99261000	17.36589000
180.29998947	0.00000000	69.57431000	17.40895000
180.49998946	0.00000000	69.19906000	17.74114000
180.69998945	0.00000000	68.82996000	18.11024000
180.89998944	0.00000000	69.19906000	17.78420000
181.09998942	0.00000000	69.53124000	17.78420000
181.29998941	0.00000000	69.57431000	18.15330000
181.49998940	0.00000000	69.57431000	18.15945000
181.69998939	0.00000000	69.57431000	18.57160000
181.89998938	0.00000000	69.57431000	18.85458000
182.09998937	0.00000000	69.57431000	18.57160000
182.29998935	0.00000000	69.57431000	18.15945000
182.49998934	0.00000000	69.57431000	18.15330000
182.69998933	0.00000000	69.57431000	17.74114000
182.89998932	0.00000000	69.61736000	17.40895000
183.09998931	0.00000000	69.94955000	17.36589000
183.29998929	0.00000000	70.31865000	17.36589000
183.49998928	0.00000000	69.94955000	17.36589000
183.69998927	0.00000000	69.61736000	17.36589000
183.89998926	0.00000000	69.57431000	17.40895000
184.09998925	0.00000000	69.57431000	17.78420000
184.29998923	0.00000000	69.57431000	18.52854000
184.49998922	0.00000000	69.57431000	18.90379000
184.69998921	0.00000000	69.57431000	18.94685000
184.89998920	0.00000000	69.57431000	18.94685000
185.09998919	0.00000000	69.57431000	18.94685000
185.29998918	0.00000000	69.57431000	18.94685000
185.49998916	0.00000000	69.61736000	18.90379000
185.69998915	0.00000000	69.94955000	18.52854000
185.89998914	0.00000000	70.31865000	17.78420000
186.09998913	0.00000000	69.94955000	17.40895000
186.29998912	0.00000000	69.61736000	17.36589000
186.49998910	0.00000000	69.57431000	17.36589000
186.69998909	0.00000000	69.57431000	17.36589000
186.89998908	0.00000000	69.57431000	17.40895000
187.09998907	0.00000000	69.57431000	17.78420000
187.29998906	0.00000000	69.57431000	18.52854000
187.49998904	0.00000000	69.57431000	18.90379000
187.69998903	0.00000000	69.57431000	18.94685000
187.89998902	0.00000000	69.57431000	18.94685000
188.09998901	0.00000000	69.57431000	18.90379000
188.29998900	0.00000000	69.57431000	18.52854000
188.49998899	0.00000000	69.57431000	17.78420000
188.69998897	0.00000000	69.57431000	17.40895000
188.89998896	0.00000000	69.57431000	17.36589000
189.09998895	0.00000000	69.57431000	17.36589000
189.29998894	0.00000000	69.57431000	17.36589000
189.49998893	0.00000000	69.57431000	17.36589000
189.69998891	0.00000000	69.57431000	17.40895000
189.89998890	0.00000000	69.57431000	17.78420000
190.09998889	0.00000000	69.57431000	18.52854000
190.29998888	0.00000000	69.57431000	18.90379000
190.49998887	0.00000000	69.57431000	18.94685000
190.69998885	0.00000000	69.57431000	18.90379000
190.89998884	0.00000000	69.57431000	18.52854000
191.09998883	0.00000000	69.57431000	17.78420000
191.29998882	0.00000000	69.61736000	17.40895000
191.49998881	0.00000000	69.94955000	17.36589000
191.69998880	0.00000000	70.36171000	17.36589000
191.89998878	0.00000000	70.32480000	17.36589000
192.09998877	0.00000000	70.36171000	17.36589000
192.29998876	0.00000000	69.94955000	17.36589000
192.49998875	0.00000000	69.61736000	17.36589000
192.69998874	0.00000000	69.57431000	17.36589000
192.89998872	0.00000000	69.57431000	17.36589000
193.09998871	0.00000000	69.57431000	17.36589000
193.29998870	0.00000000	69.57431000	17.36589000
193.49998869	0.00000000	69.57431000	17.40895000
193.69998868	0.00000000	69.57431000	17.78420000
193.89998866	0.00000000	69.57431000	18.52854000
194.09998865	0.00000000	69.57431000	18.90379000
194.29998864	0.00000000	69.57431000	18.94685000
194.49998863	0.00000000	69.57431000	18.94685000
194.69998862	0.00000000	69.57431000	18.90379000
194.89998861	0.00000000	69.57431000	18.52854000
195.09998859	0.00000000	69.57431000	17.78420000
195.29998858	0.00000000	69.61736000	17.45817000
195.49998857	0.00000000	69.94955000	17.74114000
195.69998856	0.00000000	70.31865000	18.15330000
195.89998855	0.00000000	69.94955000	18.15945000
196.09998853	0.00000000	69.61736000	18.57160000
