Time	Channel A	Channel B	Channel C
(us)	(V)	(mV)	(mV)

-4.53333289	0.00000000	66.40624000	18.94685000
-4.33333290	0.00000000	66.40624000	18.94685000
-4.13333291	0.00000000	66.40624000	18.94685000
-3.93333293	0.00000000	66.40624000	18.94685000
-3.73333294	0.00000000	66.40624000	18.94685000
-3.53333295	0.00000000	66.40624000	18.94685000
-3.33333296	0.00000000	66.40624000	18.90379000
-3.13333297	0.00000000	66.40624000	18.57160000
-2.93333299	0.00000000	66.40624000	18.20251000
-2.73333300	0.00000000	66.40624000	18.57160000
-2.53333301	0.00000000	66.40624000	18.90379000
-2.33333302	0.00000000	66.40624000	18.94685000
-2.13333303	0.00000000	66.40624000	18.94685000
-1.93333304	0.00000000	66.40624000	18.94685000
-1.73333306	0.00000000	66.40624000	18.94685000
-1.53333307	0.00000000	66.40624000	18.94685000
-1.33333308	0.00000000	66.40624000	18.94685000
-1.13333309	0.00000000	66.44931000	18.94685000
-0.93333310	0.00000000	66.78149000	18.94685000
-0.73333312	0.00000000	67.15059000	18.94685000
-0.53333313	0.00000000	66.78149000	18.94685000
-0.33333314	0.15871060	66.44931000	18.94685000
-0.13333315	0.47736220	66.40624000	18.94685000
0.06666684	0.95533960	66.40624000	18.94685000
0.26666682	1.11466500	66.40624000	18.94685000
0.46666681	0.95533960	66.40624000	18.94685000
0.66666680	0.47736220	66.40624000	18.94685000
0.86666679	-0.15871060	66.40624000	18.94685000
1.06666678	-1.11466500	66.40624000	18.94685000
1.26666677	-2.07062000	66.40624000	18.94685000
1.46666675	-2.70792300	66.40624000	18.94685000
1.66666674	-2.70792300	66.40624000	18.94685000
1.86666673	-1.75196900	66.40624000	18.94685000
2.06666672	-0.15871060	66.40624000	18.94685000
2.26666671	1.91129400	66.40624000	18.94685000
2.46666669	3.98191400	66.40624000	18.94685000
2.66666668	5.09719500	66.40624000	18.90379000
2.86666667	5.25652100	66.40624000	18.52854000
3.06666666	3.82258900	66.40624000	17.78420000
3.26666665	1.11466500	66.40624000	17.45817000
3.46666663	-2.38927200	66.40624000	17.78420000
3.66666662	-5.57517200	66.40624000	18.52854000
3.86666661	-7.64579200	66.40624000	18.90379000
4.06666660	-7.80511800	66.40624000	18.94685000
4.26666659	-6.21247500	66.40624000	18.94685000
4.46666658	-2.54859700	66.40624000	18.94685000
4.66666656	1.91129400	66.40624000	18.94685000
4.86666655	6.05315000	66.40624000	18.94685000
5.06666654	8.76107300	66.40624000	18.90379000
5.26666653	9.39837600	66.40624000	18.52854000
5.46666652	7.64579200	66.40624000	17.78420000
5.66666650	3.98191400	66.40624000	17.40895000
5.86666649	-0.63668800	66.40624000	17.36589000
6.06666648	-5.25652100	66.40624000	17.40895000
6.26666647	-8.44242100	66.40624000	17.78420000
6.46666646	-9.39837600	66.40624000	18.52854000
6.66666644	-8.12377000	66.40624000	18.90379000
6.86666643	-4.77854300	66.40624000	18.94685000
7.06666642	-0.63668800	66.40624000	18.94685000
7.26666641	3.50393700	66.40624000	18.94685000
7.46666640	6.69045300	66.40624000	18.94685000
7.66666639	7.80511800	66.40624000	18.94685000
7.86666637	6.84916400	66.40624000	18.90379000
8.06666636	4.61921700	66.40624000	18.57160000
8.26666635	1.27399100	66.40624000	18.15945000
8.46666634	-1.91129400	66.40624000	18.19636000
8.66666633	-4.14124000	66.40624000	18.15945000
8.86666631	-5.09719500	66.40624000	18.52854000
9.06666630	-4.77854300	66.40624000	18.52854000
9.26666629	-3.34522600	66.40624000	18.20251000
9.46666628	-1.43331700	66.40624000	18.57160000
9.66666627	0.47736220	66.40624000	18.90379000
9.86666625	1.91129400	66.40624000	18.90379000
10.06666624	2.54859700	66.40624000	18.57160000
10.26666623	2.38927200	66.40624000	18.20251000
10.46666622	1.75196900	66.40624000	18.57160000
10.66666621	0.79601380	66.40624000	18.90379000
10.86666620	0.00000000	66.40624000	18.94685000
11.06666618	-0.63668800	66.40624000	18.94685000
11.26666617	-0.95533960	66.40624000	18.94685000
11.46666616	-0.95533960	66.40624000	18.94685000
11.66666615	-0.79601380	66.40624000	18.94685000
11.86666614	-0.47736220	66.40624000	18.94685000
12.06666612	-0.15871060	66.40624000	18.94685000
12.26666611	-0.15871060	66.40624000	18.94685000
12.46666610	-0.15871060	66.40624000	18.94685000
12.66666609	0.00000000	66.40624000	18.94685000
12.86666608	0.00000000	66.40624000	18.94685000
13.06666606	0.00000000	66.40624000	18.94685000
13.26666605	0.15871060	66.40624000	18.94685000
13.46666604	0.00000000	66.40624000	18.94685000
13.66666603	0.00000000	66.40624000	18.94685000
13.86666602	0.00000000	66.40624000	18.94685000
14.06666601	0.00000000	66.40624000	18.94685000
14.26666599	-0.15871060	66.40624000	18.94685000
14.46666598	-0.15871060	66.40624000	18.94685000
14.66666597	-0.15871060	66.40624000	18.94685000
14.86666596	0.00000000	66.40624000	18.94685000
15.06666595	0.00000000	66.40624000	18.94685000
15.26666593	0.00000000	66.40624000	18.94685000
15.46666592	0.00000000	66.40624000	18.94685000
15.66666591	0.00000000	66.40624000	18.94685000
15.86666590	0.00000000	66.40624000	18.94685000
16.06666589	0.00000000	66.40624000	18.94685000
16.26666587	0.00000000	66.44931000	18.94685000
16.46666586	0.00000000	66.78149000	18.94685000
16.66666585	-0.15871060	67.15059000	18.94685000
16.86666584	0.00000000	66.82455000	18.94685000
17.06666583	0.00000000	66.87376000	18.94685000
17.26666582	0.00000000	67.57505000	18.94685000
17.46666580	0.00000000	67.95029000	18.94685000
17.66666579	0.00000000	67.99335000	18.94685000
17.86666578	0.00000000	67.95029000	18.94685000
18.06666577	0.00000000	67.52583000	18.94685000
18.26666576	0.00000000	66.32012000	18.94685000
18.46666574	0.00000000	64.45004000	18.90379000
18.66666573	0.00000000	62.50000000	18.57160000
18.86666572	0.00000000	61.38041000	18.15945000
19.06666571	0.00000000	60.96825000	18.19636000
19.26666570	0.00000000	61.79872000	18.11639000
19.46666568	0.00000000	63.75492000	18.19636000
19.66666567	0.00000000	66.87376000	18.11639000
19.86666566	0.00000000	70.73695000	18.19636000
20.06666565	0.00000000	74.22490000	18.11639000
20.26666564	0.00000000	76.88238000	18.19636000
20.46666563	0.00000000	77.57751000	18.11639000
20.66666561	0.00000000	75.20915000	18.15330000
20.86666560	0.00000000	70.17716000	17.78420000
21.06666559	0.00000000	63.15822000	17.78420000
21.26666558	0.00000000	55.47490000	18.11024000
21.46666557	0.00000000	48.91732000	17.74114000
21.66666555	0.00000000	45.51550000	17.45817000
21.86666554	0.00000000	46.35826000	17.74114000
22.06666553	0.00000000	52.25763000	18.15330000
22.26666552	0.00000000	62.68454000	18.11639000
22.46666551	0.00000000	75.43060000	18.19636000
22.66666549	0.00000000	87.38926000	18.15945000
22.86666548	0.00000000	95.81692000	18.57160000
23.06666547	0.00000000	98.04995000	18.90379000
23.26666546	0.00000000	92.60580000	18.98991000
23.46666545	0.00000000	80.60408000	19.36516000
23.66666544	0.00000000	64.27164000	20.10950000
23.86666542	0.00000000	46.54281000	20.48474000
24.06666541	0.00000000	31.56373000	20.48474000
24.26666540	0.00000000	23.92347000	20.10950000
24.46666539	0.00000000	25.87967000	19.32210000
24.66666538	0.00000000	37.51230000	18.47933000
24.86666536	0.00000000	56.45300000	16.94759000
25.06666535	0.00000000	78.50639000	15.04675000
25.26666534	0.00000000	98.97884000	13.92717000
25.46666533	0.00000000	113.17050000	13.46580000
25.66666532	0.00000000	116.94140000	13.92717000
25.86666530	0.00000000	108.42770000	15.13902000
26.06666529	0.00000000	89.57922000	17.91953000
26.26666528	0.00000000	65.24360000	22.10261000
26.46666527	0.00000000	41.28322000	26.32874000
26.66666526	0.00000000	22.71777000	29.39837000
26.86666525	0.00000000	13.83489000	30.51796000
27.06666523	0.00000000	16.52928000	28.89395000
27.26666522	0.00000000	30.06890000	24.24335000
27.46666521	0.00000000	51.70398000	17.27977000
27.66666520	0.00000000	76.41486000	9.55954600
27.86666519	0.00000000	98.42519000	2.63902500
28.06666517	0.00000000	112.75220000	-1.53789400
28.26666516	0.00000000	116.24630000	-1.53789400
28.46666515	0.00000000	108.60600000	2.77436000
28.66666514	0.00000000	92.00294000	10.95595000
28.86666513	0.00000000	70.78001000	22.19488000
29.06666511	0.00000000	49.47096000	34.09203000
29.26666510	0.00000000	32.81250000	43.71309000
29.46666509	0.00000000	23.83735000	48.26525000
29.66666508	0.00000000	23.83735000	46.31520000
29.86666507	0.00000000	32.67717000	37.81373000
30.06666506	0.00000000	48.08071000	24.61860000
30.26666504	0.00000000	65.85260000	9.14739100
30.46666503	0.00000000	82.18504000	-5.85629900
30.66666502	0.00000000	94.23597000	-16.22170000
30.86666501	0.00000000	100.04920000	-19.29134000
31.06666500	0.00000000	98.51746000	-14.26550000
31.26666498	0.00000000	90.04675000	-1.91314000
31.46666497	0.00000000	76.96850000	14.72072000
31.66666496	0.00000000	62.64148000	32.51722000
31.86666495	0.00000000	50.21530000	47.93922000
32.06666494	0.00000000	41.65846000	57.19118000
32.26666492	0.00000000	38.53961000	58.34768000
32.46666491	0.00000000	41.19094000	51.00885000
32.66666490	0.00000000	48.54207000	36.74335000
32.86666489	0.00000000	58.96899000	18.94685000
33.06666488	0.00000000	70.17716000	1.15649600
33.26666487	0.00000000	79.48450000	-13.10900000
33.46666485	0.00000000	85.30388000	-20.44783000
33.66666484	0.00000000	86.41732000	-19.33440000
33.86666483	0.00000000	82.27116000	-10.50689000
34.06666482	0.00000000	74.60014000	3.84473400
34.26666481	0.00000000	66.08021000	20.85384000
34.46666479	0.00000000	57.94168000	37.43848000
34.66666478	0.00000000	52.21457000	49.37868000
34.86666477	0.00000000	50.59055000	54.07234000
35.06666476	0.00000000	52.82357000	51.00270000
35.26666475	0.00000000	57.47416000	41.01255000
35.46666473	0.00000000	63.66264000	26.74705000
35.66666472	0.00000000	70.17716000	11.69414000
35.86666471	0.00000000	74.79084000	-1.07652500
36.06666470	0.00000000	76.37180000	-8.79060000
36.26666469	0.00000000	74.83390000	-9.94709500
36.46666468	0.00000000	70.64468000	-4.18922200
36.66666466	0.00000000	65.24360000	6.91437000
36.86666465	0.00000000	60.26082000	19.97416000
37.06666464	0.00000000	56.77903000	31.53912000
37.26666463	0.00000000	56.02854000	38.84104000
37.46666462	0.00000000	57.89247000	40.04060000
37.66666460	0.00000000	61.75566000	35.11319000
37.86666459	0.00000000	66.36318000	26.28568000
38.06666458	0.00000000	70.64468000	15.92027000
38.26666457	0.00000000	73.72047000	6.72367100
38.46666456	0.00000000	74.87697000	1.75319900
38.66666454	0.00000000	73.72047000	2.07923200
38.86666453	0.00000000	70.68774000	7.46801100
39.06666452	0.00000000	66.78149000	16.25246000
39.26666451	0.00000000	62.91216000	25.82431000
39.46666450	0.00000000	59.43036000	33.07701000
39.66666449	0.00000000	57.47416000	35.72219000
39.86666447	0.00000000	57.05585000	32.70177000
40.06666446	0.00000000	57.89247000	25.03691000
40.26666445	0.00000000	60.59301000	15.45891000
40.46666444	0.00000000	64.40699000	6.21924200
40.66666443	0.00000000	67.94415000	0.12918310
40.86666441	0.00000000	71.06299000	-1.03346500
41.06666440	0.00000000	73.38828000	3.19266700
41.26666439	0.00000000	74.13878000	11.60187000
41.46666438	0.00000000	73.38828000	21.63509000
41.66666437	0.00000000	71.06299000	30.84399000
41.86666435	0.00000000	67.99335000	36.97096000
42.06666434	0.00000000	64.82529000	37.77067000
42.26666433	0.00000000	61.75566000	33.58144000
42.46666432	0.00000000	59.43036000	25.86737000
42.66666431	0.00000000	58.59375000	16.29552000
42.86666430	0.00000000	58.59375000	7.83710600
43.06666428	0.00000000	59.43036000	2.77436000
43.26666427	0.00000000	61.70644000	1.56865100
43.46666426	0.00000000	64.35777000	4.26304100
43.66666425	0.00000000	66.32012000	9.98400600
43.86666424	0.00000000	67.57505000	16.90453000
44.06666422	0.00000000	68.36859000	23.08686000
44.26666421	0.00000000	69.15600000	27.35605000
44.46666420	0.00000000	69.53124000	28.93701000
44.66666419	0.00000000	69.57431000	27.82357000
44.86666418	0.00000000	69.53124000	24.75394000
45.06666416	0.00000000	69.15600000	20.52780000
45.26666415	0.00000000	68.32554000	16.29552000
45.46666414	0.00000000	67.10752000	13.18282000
45.66666413	0.00000000	64.73917000	11.60187000
45.86666412	0.00000000	61.66338000	11.60187000
46.06666411	0.00000000	58.54454000	13.09055000
46.26666409	0.00000000	55.89320000	15.40969000
46.46666408	0.00000000	54.77977000	17.74114000
46.66666407	0.00000000	55.93627000	20.06029000
46.86666406	0.00000000	59.05511000	21.64124000
47.06666405	0.00000000	63.75492000	22.43479000
47.26666403	0.00000000	69.57431000	22.79773000
47.46666402	0.00000000	75.34448000	21.96727000
47.66666401	0.00000000	79.57676000	20.06029000
47.86666400	0.00000000	81.06544000	17.41511000
48.06666399	0.00000000	79.10925000	15.08981000
48.26666397	0.00000000	73.67126000	13.87795000
48.46666396	0.00000000	65.94488000	13.09670000
48.66666395	0.00000000	57.43110000	13.18282000
48.86666394	0.00000000	50.17224000	14.72072000
49.06666393	0.00000000	46.35826000	17.45817000
49.26666392	0.00000000	47.47170000	20.85384000
49.46666390	0.00000000	52.86663000	23.91732000
49.66666389	0.00000000	61.01131000	25.08612000
49.86666388	0.00000000	70.64468000	24.75394000
50.06666387	0.00000000	79.10925000	23.12992000
50.26666386	0.00000000	84.14124000	20.01722000
50.46666384	0.00000000	84.87943000	15.83415000
50.66666383	0.00000000	80.64714000	11.97711000
50.86666382	0.00000000	72.60088000	9.69488100
51.06666381	0.00000000	63.33661000	9.28272600
51.26666380	0.00000000	54.86589000	11.22662000
51.46666379	0.00000000	49.47096000	14.67150000
51.66666377	0.00000000	48.67741000	18.94685000
51.86666376	0.00000000	52.07923000	23.12992000
52.06666375	0.00000000	58.67987000	25.86737000
52.26666374	0.00000000	66.69537000	26.66092000
52.46666373	0.00000000	73.99113000	25.86737000
52.66666371	0.00000000	77.86047000	23.12992000
52.86666370	0.00000000	77.95275000	18.94685000
53.06666369	0.00000000	74.87697000	14.72072000
53.26666368	0.00000000	69.48203000	11.65108000
53.46666367	0.00000000	63.29355000	10.48843000
53.66666365	0.00000000	57.56643000	11.60187000
53.86666364	0.00000000	54.12770000	14.25320000
54.06666363	0.00000000	54.49065000	17.32283000
54.26666362	0.00000000	57.89247000	20.01722000
54.46666361	0.00000000	63.29355000	21.54897000
54.66666360	0.00000000	69.02066000	21.59203000
54.86666358	0.00000000	73.25295000	20.47859000
55.06666357	0.00000000	74.83390000	18.94685000
55.26666356	0.00000000	73.72047000	17.36589000
55.46666355	0.00000000	70.60162000	15.92027000
55.66666354	0.00000000	65.98794000	15.55733000
55.86666352	0.00000000	61.01131000	17.08292000
56.06666351	0.00000000	57.56643000	19.32210000
56.26666350	0.00000000	56.36073000	21.64124000
56.46666349	0.00000000	57.51722000	23.08686000
56.66666348	0.00000000	60.59301000	22.71161000
56.86666346	0.00000000	64.78223000	20.39247000
57.06666345	0.00000000	68.64542000	16.94759000
57.26666344	0.00000000	70.97687000	13.09670000
57.46666343	0.00000000	71.80733000	10.02707000
57.66666342	0.00000000	70.97687000	8.53838500
57.86666341	0.00000000	68.68848000	9.37500000
58.06666339	0.00000000	65.24360000	13.22589000
58.26666338	0.00000000	62.21702000	18.94685000
58.46666337	0.00000000	60.59301000	24.75394000
58.66666336	0.00000000	60.21776000	29.35531000
58.86666335	0.00000000	60.96825000	31.63140000
59.06666333	0.00000000	62.86909000	30.42569000
59.26666332	0.00000000	64.78223000	25.82431000
59.46666331	0.00000000	66.36318000	18.89764000
59.66666330	0.00000000	67.48277000	11.60187000
59.86666329	0.00000000	67.52583000	5.79478300
60.06666327	0.00000000	66.78149000	2.73129900
60.26666326	0.00000000	65.98794000	3.14960600
60.46666325	0.00000000	64.82529000	7.41879900
60.66666324	0.00000000	63.75492000	14.72072000
60.86666323	0.00000000	63.71186000	23.17298000
61.06666322	0.00000000	64.45004000	30.46875000
61.26666320	0.00000000	65.24360000	34.69488000
61.46666319	0.00000000	66.40624000	34.69488000
61.66666318	0.00000000	67.48277000	30.46875000
61.86666317	0.00000000	67.48277000	23.17298000
62.06666316	0.00000000	66.36318000	14.67150000
62.26666314	0.00000000	64.78223000	7.00049200
62.46666313	0.00000000	62.86909000	1.94389800
62.66666312	0.00000000	60.96825000	0.77509840
62.86666311	0.00000000	60.21776000	3.10039400
63.06666310	0.00000000	60.59301000	8.90747900
63.26666308	0.00000000	62.17396000	16.94759000
63.46666307	0.00000000	64.82529000	24.66166000
63.66666306	0.00000000	67.52583000	30.46875000
63.86666305	0.00000000	69.48203000	33.21235000
64.06666304	0.00000000	70.64468000	32.42495000
64.26666303	0.00000000	70.60162000	28.60482000
64.46666301	0.00000000	69.06373000	22.43479000
64.66666300	0.00000000	66.40624000	15.87721000
64.86666299	0.00000000	63.71186000	10.07013000
65.06666298	0.00000000	61.75566000	6.21924200
65.26666297	0.00000000	60.54995000	5.37647600
65.46666295	0.00000000	60.21776000	6.86515700
65.66666294	0.00000000	61.01131000	9.98400600
65.86666293	0.00000000	63.28740000	14.25320000
66.06666292	0.00000000	65.94488000	18.85458000
66.26666291	0.00000000	67.85802000	22.75467000
66.46666289	0.00000000	68.64542000	25.17224000
66.66666288	0.00000000	67.90108000	26.75320000
66.86666287	0.00000000	66.36318000	27.44832000
67.06666286	0.00000000	64.40699000	26.28568000
67.26666285	0.00000000	62.17396000	23.64050000
67.46666284	0.00000000	61.05437000	20.52780000
67.66666282	0.00000000	61.79872000	17.36589000
67.86666281	0.00000000	63.66264000	14.25320000
68.06666280	0.00000000	66.03100000	11.51575000
68.26666279	0.00000000	68.31938000	9.55954600
68.46666278	0.00000000	70.22637000	8.44611200
68.66666276	0.00000000	70.55856000	8.86441900
68.86666275	0.00000000	69.02066000	11.22662000
69.06666274	0.00000000	65.89567000	15.08981000
69.26666273	0.00000000	61.70644000	20.10950000
69.46666272	0.00000000	57.89247000	24.71087000
69.66666270	0.00000000	55.93627000	27.86663000
69.86666269	0.00000000	55.93627000	29.40452000
70.06666268	0.00000000	57.94168000	28.98007000
70.26666267	0.00000000	62.17396000	26.24262000
70.46666266	0.00000000	67.52583000	21.59203000
70.66666265	0.00000000	72.18258000	15.83415000
70.86666263	0.00000000	75.30142000	10.48843000
71.06666262	0.00000000	76.41486000	7.37573800
71.26666261	0.00000000	74.83390000	6.90821800
71.46666260	0.00000000	70.60162000	8.44611200
71.66666259	0.00000000	64.82529000	11.60187000
71.86666257	0.00000000	59.01205000	16.20325000
72.06666256	0.00000000	54.35531000	21.17372000
72.26666255	0.00000000	51.70398000	24.66166000
72.46666254	0.00000000	52.07923000	26.24262000
72.66666253	0.00000000	55.51796000	25.86737000
72.86666251	0.00000000	60.54995000	23.59129000
73.06666250	0.00000000	66.40624000	20.57087000
73.26666249	0.00000000	72.13335000	17.83341000
73.46666248	0.00000000	75.99655000	15.87721000
73.66666247	0.00000000	76.79011000	14.72072000
73.86666246	0.00000000	74.87697000	14.72072000
74.06666244	0.00000000	70.64468000	15.83415000
74.26666243	0.00000000	65.29281000	17.32283000
74.46666242	0.00000000	60.63607000	18.43627000
74.66666241	0.00000000	57.47416000	18.43627000
74.86666240	0.00000000	55.93627000	17.32283000
75.06666238	0.00000000	56.31151000	15.83415000
75.26666237	0.00000000	58.59375000	14.67150000
75.46666236	0.00000000	61.66338000	14.30241000
75.66666235	0.00000000	64.78223000	14.76378000
75.86666234	0.00000000	67.48277000	16.71383000
76.06666232	0.00000000	69.06373000	20.15256000
76.26666231	0.00000000	69.48203000	23.59129000
76.46666230	0.00000000	69.10678000	26.28568000
76.66666229	0.00000000	67.94415000	27.35605000
76.86666228	0.00000000	66.40624000	25.82431000
77.06666227	0.00000000	64.86835000	21.96727000
77.26666225	0.00000000	63.71186000	16.94759000
77.46666224	0.00000000	63.33661000	11.55881000
77.66666223	0.00000000	63.61958000	7.33267600
77.86666222	0.00000000	63.98867000	5.42568800
78.06666221	0.00000000	63.61958000	6.17618100
78.26666219	0.00000000	63.24434000	9.69488100
78.46666218	0.00000000	62.82603000	15.04675000
78.66666217	0.00000000	62.08169000	21.22293000
78.86666216	0.00000000	61.79872000	26.24262000
79.06666215	0.00000000	62.54921000	29.39837000
79.26666213	0.00000000	64.45004000	30.51796000
79.46666212	0.00000000	66.36318000	28.93701000
79.66666211	0.00000000	67.99335000	24.71087000
79.86666210	0.00000000	69.48203000	18.90379000
80.06666209	0.00000000	70.22637000	12.80758000
80.26666208	0.00000000	69.39591000	8.16929100
80.46666206	0.00000000	67.15059000	6.53912400
80.66666205	0.00000000	64.03790000	6.86515700
80.86666204	0.00000000	61.38041000	8.82135800
81.06666203	0.00000000	59.38730000	12.29700000
81.26666202	0.00000000	58.67987000	16.16018000
81.46666200	0.00000000	59.38730000	20.10950000
81.66666199	0.00000000	61.33120000	23.54823000
81.86666198	0.00000000	63.66264000	25.91043000
82.06666197	0.00000000	66.36318000	26.70398000
82.26666196	0.00000000	68.64542000	26.32874000
82.46666194	0.00000000	69.43897000	24.75394000
82.66666193	0.00000000	69.10678000	22.05955000
82.86666192	0.00000000	67.90108000	18.94685000
83.06666191	0.00000000	65.98794000	15.78494000
83.26666190	0.00000000	63.71186000	12.67224000
83.46666189	0.00000000	62.17396000	10.02707000
83.66666187	0.00000000	61.70644000	8.86441900
83.86666186	0.00000000	61.70644000	9.60875900
84.06666185	0.00000000	62.13090000	11.55881000
84.26666184	0.00000000	63.24434000	14.72072000
84.46666183	0.00000000	64.35777000	18.94685000
84.66666181	0.00000000	64.78223000	23.12992000
84.86666180	0.00000000	64.82529000	25.86737000
85.06666179	0.00000000	64.82529000	26.70398000
85.26666178	0.00000000	64.82529000	26.28568000
85.46666177	0.00000000	64.86835000	24.29257000
85.66666175	0.00000000	65.24360000	20.43553000
85.86666174	0.00000000	65.98794000	15.83415000
86.06666173	0.00000000	66.36318000	11.55881000
86.26666172	0.00000000	66.36318000	8.48917200
86.46666171	0.00000000	65.93873000	7.33267600
86.66666170	0.00000000	64.82529000	8.48917200
86.86666168	0.00000000	63.66264000	11.60187000
87.06666167	0.00000000	62.82603000	16.25246000
87.26666166	0.00000000	61.70644000	21.59203000
87.46666165	0.00000000	60.96825000	25.82431000
87.66666164	0.00000000	61.38041000	27.77436000
87.86666162	0.00000000	62.50000000	27.40526000
88.06666161	0.00000000	64.45004000	24.71087000
88.26666160	0.00000000	66.32012000	20.47859000
88.46666159	0.00000000	67.52583000	15.87721000
88.66666158	0.00000000	67.95029000	11.97711000
88.86666156	0.00000000	67.90108000	9.69488100
89.06666155	0.00000000	67.10752000	9.33193800
89.26666154	0.00000000	65.20053000	11.64493000
89.46666153	0.00000000	63.33661000	15.83415000
89.66666152	0.00000000	62.13090000	20.43553000
89.86666151	0.00000000	61.70644000	24.29257000
90.06666149	0.00000000	61.70644000	26.19955000
90.26666148	0.00000000	62.13090000	25.86737000
90.46666147	0.00000000	63.28740000	23.54823000
90.66666146	0.00000000	64.78223000	20.06029000
90.86666145	0.00000000	65.93873000	15.83415000
91.06666143	0.00000000	66.36318000	12.02018000
91.26666142	0.00000000	66.40624000	10.11319000
91.46666141	0.00000000	66.36318000	10.48843000
91.66666140	0.00000000	65.98794000	13.18282000
91.86666139	0.00000000	65.24360000	17.36589000
92.06666137	0.00000000	64.86835000	21.59203000
92.26666136	0.00000000	64.82529000	24.66166000
92.46666135	0.00000000	64.78223000	25.82431000
92.66666134	0.00000000	64.40699000	24.66166000
92.86666133	0.00000000	63.61958000	21.59203000
93.06666132	0.00000000	62.86909000	17.36589000
93.26666130	0.00000000	62.08169000	13.13976000
93.46666129	0.00000000	61.70644000	10.07013000
93.66666128	0.00000000	61.70644000	8.95669300
93.86666127	0.00000000	62.13090000	10.48843000
94.06666126	0.00000000	63.28740000	14.30241000
94.26666124	0.00000000	64.82529000	18.85458000
94.46666123	0.00000000	66.40624000	22.75467000
94.66666122	0.00000000	67.94415000	25.03691000
94.86666121	0.00000000	69.06373000	25.44906000
95.06666120	0.00000000	69.06373000	23.50517000
95.26666118	0.00000000	67.90108000	20.06029000
95.46666117	0.00000000	65.94488000	15.83415000
95.66666116	0.00000000	63.20127000	12.02018000
95.86666115	0.00000000	60.12549000	10.11319000
96.06666114	0.00000000	57.47416000	10.44537000
96.26666113	0.00000000	56.31151000	12.72146000
96.46666111	0.00000000	57.09892000	15.78494000
96.66666110	0.00000000	59.38730000	18.89764000
96.86666109	0.00000000	62.91216000	21.59203000
97.06666108	0.00000000	66.73843000	23.12992000
97.26666107	0.00000000	70.22637000	23.12992000
97.46666105	0.00000000	72.13951000	21.59203000
97.66666104	0.00000000	72.22563000	18.94685000
97.86666103	0.00000000	71.01993000	16.25246000
98.06666102	0.00000000	68.64542000	14.34547000
98.26666101	0.00000000	64.78223000	13.55807000
98.46666099	0.00000000	60.59301000	14.29626000
98.66666098	0.00000000	57.47416000	15.78494000
98.86666097	0.00000000	55.89320000	17.32283000
99.06666096	0.00000000	55.89320000	18.47933000
99.26666095	0.00000000	57.47416000	18.94685000
99.46666094	0.00000000	60.54995000	19.32210000
99.66666092	0.00000000	64.40699000	19.64198000
99.86666091	0.00000000	67.90108000	18.94685000
100.06666090	0.00000000	70.64468000	18.25172000
100.26666089	0.00000000	72.18258000	18.52854000
100.46666088	0.00000000	72.18258000	18.57160000
100.66666086	0.00000000	70.64468000	18.62697000
100.86666085	0.00000000	67.90108000	19.69119000
101.06666084	0.00000000	64.45004000	19.97416000
101.26666083	0.00000000	60.96825000	18.85458000
101.46666082	0.00000000	58.67987000	16.99065000
101.66666080	0.00000000	57.80634000	15.08981000
101.86666079	0.00000000	58.21850000	14.30241000
102.06666078	0.00000000	59.33809000	14.25320000
102.26666077	0.00000000	61.33120000	14.72072000
102.46666076	0.00000000	63.61958000	16.29552000
102.66666075	0.00000000	65.98794000	18.94685000
102.86666073	0.00000000	67.90108000	21.59203000
103.06666072	0.00000000	69.06373000	23.17298000
103.26666071	0.00000000	69.06373000	23.54823000
103.46666070	0.00000000	67.94415000	22.80389000
103.66666069	0.00000000	66.36318000	20.81078000
103.86666067	0.00000000	64.40699000	18.15330000
104.06666066	0.00000000	62.13090000	15.04675000
104.26666065	0.00000000	60.59301000	12.76452000
104.46666064	0.00000000	60.17470000	11.60187000
104.66666063	0.00000000	60.54995000	12.02018000
104.86666061	0.00000000	61.70644000	14.29626000
105.06666060	0.00000000	63.24434000	17.32283000
105.26666059	0.00000000	64.78223000	20.01722000
105.46666058	0.00000000	65.93873000	21.59203000
105.66666057	0.00000000	66.31397000	22.01033000
105.86666056	0.00000000	65.98794000	21.64124000
106.06666054	0.00000000	65.20053000	20.43553000
106.26666053	0.00000000	64.40699000	18.52854000
106.46666052	0.00000000	63.24434000	16.20325000
106.66666051	0.00000000	62.13090000	14.34547000
106.86666050	0.00000000	61.75566000	13.55807000
107.06666048	0.00000000	62.13090000	14.29626000
107.26666047	0.00000000	63.24434000	15.78494000
107.46666046	0.00000000	64.35777000	17.36589000
107.66666045	0.00000000	64.78223000	18.90379000
107.86666044	0.00000000	64.82529000	20.01722000
108.06666042	0.00000000	64.78223000	20.01722000
108.26666041	0.00000000	64.35777000	18.90379000
108.46666040	0.00000000	63.20127000	17.36589000
108.66666039	0.00000000	61.70644000	15.83415000
108.86666038	0.00000000	60.59301000	14.67150000
109.06666037	0.00000000	60.54995000	14.30241000
109.26666035	0.00000000	61.28814000	14.67150000
109.46666034	0.00000000	62.13090000	15.83415000
109.66666033	0.00000000	63.66264000	17.36589000
109.86666032	0.00000000	65.52042000	18.90379000
110.06666031	0.00000000	66.31397000	20.06029000
110.26666029	0.00000000	66.36318000	20.43553000
110.46666028	0.00000000	65.93873000	20.10950000
110.66666027	0.00000000	64.78223000	19.27903000
110.86666026	0.00000000	63.28740000	18.11024000
111.06666025	0.00000000	62.13090000	16.20325000
111.26666023	0.00000000	61.70644000	14.72072000
111.46666022	0.00000000	61.66338000	14.30241000
111.66666021	0.00000000	61.70644000	14.62844000
111.86666020	0.00000000	62.13090000	15.45891000
112.06666019	0.00000000	63.28740000	16.57849000
112.26666018	0.00000000	64.78223000	18.11024000
112.46666016	0.00000000	65.89567000	18.85458000
112.66666015	0.00000000	65.93873000	18.94685000
112.86666014	0.00000000	65.24360000	18.94685000
113.06666013	0.00000000	64.82529000	18.94685000
113.26666012	0.00000000	64.35777000	18.90379000
113.46666010	0.00000000	63.28740000	18.52854000
113.66666009	0.00000000	62.50000000	17.78420000
113.86666008	0.00000000	62.49385000	17.40895000
114.06666007	0.00000000	62.45694000	17.32283000
114.26666006	0.00000000	62.86909000	16.99065000
114.46666004	0.00000000	63.24434000	16.62155000
114.66666003	0.00000000	63.66264000	16.89837000
114.86666002	0.00000000	64.35777000	16.52928000
115.06666001	0.00000000	64.40699000	15.50812000
115.26666000	0.00000000	64.08095000	15.87721000
115.46665999	0.00000000	64.45004000	16.85531000
115.66665997	0.00000000	64.73302000	16.94759000
115.86665996	0.00000000	64.40699000	16.67077000
116.06665995	0.00000000	63.61958000	17.40895000
116.26665994	0.00000000	62.86909000	18.47933000
116.46665993	0.00000000	62.08169000	18.90379000
116.66665991	0.00000000	61.70644000	18.94685000
116.86665990	0.00000000	61.70644000	18.90379000
117.06665989	0.00000000	62.13090000	18.52854000
117.26665988	0.00000000	63.24434000	17.74114000
117.46665987	0.00000000	64.40699000	16.99065000
117.66665985	0.00000000	65.20053000	16.20325000
117.86665984	0.00000000	65.98794000	15.82800000
118.06665983	0.00000000	66.31397000	15.78494000
118.26665982	0.00000000	65.98794000	15.78494000
118.46665981	0.00000000	65.20053000	15.82800000
118.66665980	0.00000000	64.40699000	16.20325000
118.86665978	0.00000000	63.24434000	16.99065000
119.06665977	0.00000000	62.08169000	17.74114000
119.26665976	0.00000000	61.28814000	18.52854000
119.46665975	0.00000000	60.54995000	18.90379000
119.66665974	0.00000000	60.59301000	18.94685000
119.86665972	0.00000000	61.70644000	18.90379000
120.06665971	0.00000000	63.24434000	18.52854000
120.26665970	0.00000000	64.78223000	17.78420000
120.46665969	0.00000000	65.93873000	17.40895000
120.66665968	0.00000000	66.36318000	17.36589000
120.86665966	0.00000000	66.36318000	17.32283000
121.06665965	0.00000000	65.93873000	16.94759000
121.26665964	0.00000000	64.82529000	16.20325000
121.46665963	0.00000000	63.66264000	15.82800000
121.66665962	0.00000000	62.86909000	15.82800000
121.86665961	0.00000000	62.03863000	16.20325000
122.06665959	0.00000000	61.28814000	16.94759000
122.26665958	0.00000000	60.54995000	17.36589000
122.46665957	0.00000000	60.59301000	17.78420000
122.66665956	0.00000000	61.70644000	18.52854000
122.86665955	0.00000000	63.20127000	18.90379000
123.06665953	0.00000000	64.35777000	18.94685000
123.26665952	0.00000000	64.82529000	18.94685000
123.46665951	0.00000000	65.24360000	18.90379000
123.66665950	0.00000000	65.93873000	18.52854000
123.86665949	0.00000000	65.93873000	17.74114000
124.06665947	0.00000000	65.20053000	16.99065000
124.26665946	0.00000000	64.45004000	16.20325000
124.46665945	0.00000000	63.61958000	15.82800000
124.66665944	0.00000000	62.86909000	15.78494000
124.86665943	0.00000000	62.03863000	15.82800000
125.06665942	0.00000000	61.28814000	16.20325000
125.26665940	0.00000000	60.54995000	16.99065000
125.46665939	0.00000000	60.59301000	17.74114000
125.66665938	0.00000000	61.66338000	18.52854000
125.86665937	0.00000000	62.82603000	18.90379000
126.06665936	0.00000000	63.61958000	18.94685000
126.26665934	0.00000000	64.45004000	18.90379000
126.46665933	0.00000000	65.15748000	18.52854000
126.66665932	0.00000000	65.56963000	17.78420000
126.86665931	0.00000000	65.20053000	17.40895000
127.06665930	0.00000000	64.82529000	17.36589000
127.26665928	0.00000000	64.35777000	17.32283000
127.46665927	0.00000000	63.20127000	16.99065000
127.66665926	0.00000000	61.75566000	16.62155000
127.86665925	0.00000000	60.96825000	16.99065000
128.06665924	0.00000000	61.28814000	17.32283000
128.26665923	0.00000000	61.66338000	17.36589000
128.46665921	0.00000000	62.13090000	17.36589000
128.66665920	0.00000000	63.24434000	17.40895000
128.86665919	0.00000000	64.35777000	17.74114000
129.06665918	0.00000000	64.78223000	18.01796000
129.26665917	0.00000000	64.82529000	16.94759000
129.46665915	0.00000000	64.78223000	15.55733000
129.66665914	0.00000000	64.35777000	15.87721000
129.86665913	0.00000000	63.24434000	16.85531000
130.06665912	0.00000000	62.13090000	16.89837000
130.26665911	0.00000000	61.70644000	16.25246000
130.46665909	0.00000000	61.66338000	16.25246000
130.66665908	0.00000000	61.70644000	16.94759000
130.86665907	0.00000000	62.08169000	17.32283000
131.06665906	0.00000000	62.86909000	17.40895000
131.26665905	0.00000000	63.61958000	17.74114000
131.46665904	0.00000000	64.40699000	18.11024000
131.66665902	0.00000000	64.78223000	17.69808000
131.86665901	0.00000000	64.78223000	16.99065000
132.06665900	0.00000000	64.35777000	16.20325000
132.26665899	0.00000000	63.24434000	15.82800000
132.46665898	0.00000000	62.13090000	15.78494000
132.66665896	0.00000000	61.70644000	15.82800000
132.86665895	0.00000000	61.70644000	16.20325000
133.06665894	0.00000000	62.08169000	16.99065000
133.26665893	0.00000000	62.82603000	17.74114000
133.46665892	0.00000000	63.20127000	18.52854000
133.66665890	0.00000000	63.24434000	18.90379000
133.86665889	0.00000000	63.24434000	18.90379000
134.06665888	0.00000000	63.24434000	18.52854000
134.26665887	0.00000000	63.24434000	17.74114000
134.46665886	0.00000000	63.24434000	16.99065000
134.66665885	0.00000000	63.24434000	16.16018000
134.86665883	0.00000000	63.24434000	15.45891000
135.06665882	0.00000000	63.24434000	15.04675000
135.26665881	0.00000000	63.24434000	15.40969000
135.46665880	0.00000000	63.28740000	15.78494000
135.66665879	0.00000000	63.61958000	16.20325000
135.86665877	0.00000000	63.98867000	16.99065000
136.06665876	0.00000000	63.61958000	17.74114000
136.26665875	0.00000000	63.24434000	18.52854000
136.46665874	0.00000000	62.82603000	18.90379000
136.66665873	0.00000000	62.08169000	18.90379000
136.86665871	0.00000000	61.70644000	18.52854000
137.06665870	0.00000000	61.70644000	17.78420000
137.26665869	0.00000000	62.08169000	17.40895000
137.46665868	0.00000000	62.82603000	17.32283000
137.66665867	0.00000000	63.24434000	16.94759000
137.86665866	0.00000000	63.66264000	16.20325000
138.06665864	0.00000000	64.40699000	15.82800000
138.26665863	0.00000000	64.73302000	15.78494000
138.46665862	0.00000000	64.40699000	15.78494000
138.66665861	0.00000000	63.61958000	15.82800000
138.86665860	0.00000000	62.86909000	16.20325000
139.06665858	0.00000000	62.08169000	16.94759000
139.26665857	0.00000000	61.70644000	17.36589000
139.46665856	0.00000000	61.70644000	17.78420000
139.66665855	0.00000000	62.08169000	18.52854000
139.86665854	0.00000000	62.82603000	18.90379000
140.06665852	0.00000000	63.24434000	18.90379000
140.26665851	0.00000000	63.66264000	18.52854000
140.46665850	0.00000000	64.40699000	17.74114000
140.66665849	0.00000000	64.73302000	16.94759000
140.86665848	0.00000000	64.40699000	15.78494000
141.06665847	0.00000000	63.66264000	14.72072000
141.26665845	0.00000000	63.24434000	14.67150000
141.46665844	0.00000000	62.82603000	15.36663000
141.66665843	0.00000000	62.08169000	15.82800000
141.86665842	0.00000000	61.75566000	16.62155000
142.06665841	0.00000000	62.08169000	18.15330000
142.26665839	0.00000000	62.82603000	19.22982000
142.46665838	0.00000000	63.20127000	19.69119000
142.66665837	0.00000000	63.24434000	19.27903000
142.86665836	0.00000000	63.24434000	18.57160000
143.06665835	0.00000000	63.24434000	17.74114000
143.26665834	0.00000000	63.24434000	16.94759000
143.46665832	0.00000000	63.20127000	15.78494000
143.66665831	0.00000000	62.86909000	14.72072000
143.86665830	0.00000000	62.50000000	14.67150000
144.06665829	0.00000000	62.86909000	15.36663000
144.26665828	0.00000000	63.20127000	15.78494000
144.46665826	0.00000000	63.24434000	16.25246000
144.66665825	0.00000000	63.24434000	17.36589000
144.86665824	0.00000000	63.24434000	18.47933000
145.06665823	0.00000000	63.24434000	18.90379000
145.26665822	0.00000000	63.24434000	18.90379000
145.46665820	0.00000000	63.20127000	18.52854000
145.66665819	0.00000000	62.82603000	17.78420000
145.86665818	0.00000000	62.08169000	17.36589000
146.06665817	0.00000000	61.70644000	16.94759000
146.26665816	0.00000000	61.70644000	16.20325000
146.46665815	0.00000000	62.08169000	15.82800000
146.66665813	0.00000000	62.82603000	15.78494000
146.86665812	0.00000000	63.20127000	15.82800000
147.06665811	0.00000000	63.24434000	16.20325000
147.26665810	0.00000000	63.24434000	16.94759000
147.46665809	0.00000000	63.24434000	17.32283000
147.66665807	0.00000000	63.24434000	17.36589000
147.86665806	0.00000000	63.20127000	17.36589000
148.06665805	0.00000000	62.82603000	17.36589000
148.26665804	0.00000000	62.08169000	17.36589000
148.46665803	0.00000000	61.70644000	17.36589000
148.66665801	0.00000000	61.66338000	17.36589000
148.86665800	0.00000000	61.70644000	17.32283000
149.06665799	0.00000000	62.08169000	16.99065000
149.26665798	0.00000000	62.82603000	16.62155000
149.46665797	0.00000000	63.20127000	16.94759000
149.66665796	0.00000000	63.24434000	16.89837000
149.86665794	0.00000000	63.24434000	16.20325000
150.06665793	0.00000000	63.24434000	15.87721000
150.26665792	0.00000000	63.24434000	16.20325000
150.46665791	0.00000000	63.24434000	16.94759000
150.66665790	0.00000000	63.24434000	17.36589000
150.86665788	0.00000000	63.20127000	17.74114000
151.06665787	0.00000000	62.82603000	18.11024000
151.26665786	0.00000000	62.08169000	17.74114000
151.46665785	0.00000000	61.70644000	17.40895000
151.66665784	0.00000000	61.70644000	17.36589000
151.86665782	0.00000000	62.08169000	17.36589000
152.06665781	0.00000000	62.82603000	17.36589000
152.26665780	0.00000000	63.20127000	17.36589000
152.46665779	0.00000000	63.28740000	17.36589000
152.66665778	0.00000000	63.61958000	17.36589000
152.86665777	0.00000000	63.98867000	17.36589000
153.06665775	0.00000000	63.61958000	17.36589000
153.26665774	0.00000000	63.28740000	17.36589000
153.46665773	0.00000000	63.20127000	17.36589000
153.66665772	0.00000000	62.82603000	17.36589000
153.86665771	0.00000000	62.08169000	17.36589000
154.06665769	0.00000000	61.70644000	17.36589000
154.26665768	0.00000000	61.66338000	17.36589000
154.46665767	0.00000000	61.66338000	17.36589000
154.66665766	0.00000000	61.66338000	17.36589000
154.86665765	0.00000000	61.70644000	17.36589000
155.06665763	0.00000000	62.08169000	17.36589000
155.26665762	0.00000000	62.82603000	17.32283000
155.46665761	0.00000000	63.20127000	16.94759000
155.66665760	0.00000000	63.24434000	16.20325000
155.86665759	0.00000000	63.24434000	15.82800000
156.06665758	0.00000000	63.24434000	15.82800000
156.26665756	0.00000000	63.24434000	16.20325000
156.46665755	0.00000000	63.24434000	16.94759000
156.66665754	0.00000000	63.24434000	17.32283000
156.86665753	0.00000000	63.20127000	17.40895000
157.06665752	0.00000000	62.82603000	17.74114000
157.26665750	0.00000000	62.08169000	18.15330000
157.46665749	0.00000000	61.70644000	18.07332000
157.66665748	0.00000000	61.66338000	17.73499000
157.86665747	0.00000000	61.70644000	16.62155000
158.06665746	0.00000000	62.08169000	16.29552000
158.26665744	0.00000000	62.82603000	16.89837000
158.46665743	0.00000000	63.20127000	16.89837000
158.66665742	0.00000000	63.24434000	16.25246000
158.86665741	0.00000000	63.24434000	16.25246000
159.06665740	0.00000000	63.24434000	16.94759000
159.26665739	0.00000000	63.24434000	17.32283000
159.46665737	0.00000000	63.24434000	17.40895000
159.66665736	0.00000000	63.20127000	17.78420000
159.86665735	0.00000000	62.86909000	18.52854000
160.06665734	0.00000000	62.45694000	18.90379000
160.26665733	0.00000000	62.45079000	18.94685000
160.46665731	0.00000000	62.03863000	18.90379000
160.66665730	0.00000000	61.70644000	18.52854000
160.86665729	0.00000000	61.66338000	17.78420000
161.06665728	0.00000000	61.70644000	17.36589000
161.26665727	0.00000000	62.08169000	16.94759000
161.46665725	0.00000000	62.82603000	16.20325000
161.66665724	0.00000000	63.20127000	15.82800000
161.86665723	0.00000000	63.24434000	15.82800000
162.06665722	0.00000000	63.24434000	16.20325000
162.26665721	0.00000000	63.24434000	16.94759000
162.46665720	0.00000000	63.24434000	17.32283000
162.66665718	0.00000000	63.24434000	17.36589000
162.86665717	0.00000000	63.20127000	17.36589000
163.06665716	0.00000000	62.82603000	17.36589000
163.26665715	0.00000000	62.08169000	17.36589000
163.46665714	0.00000000	61.70644000	17.36589000
163.66665712	0.00000000	61.66338000	17.32283000
163.86665711	0.00000000	61.66338000	16.94759000
164.06665710	0.00000000	61.66338000	16.20325000
164.26665709	0.00000000	61.66338000	15.82800000
164.46665708	0.00000000	61.70644000	15.78494000
164.66665706	0.00000000	62.08169000	15.78494000
164.86665705	0.00000000	62.82603000	15.78494000
165.06665704	0.00000000	63.20127000	15.78494000
165.26665703	0.00000000	63.24434000	15.78494000
165.46665702	0.00000000	63.24434000	15.82800000
165.66665701	0.00000000	63.24434000	16.20325000
165.86665699	0.00000000	63.20127000	16.94759000
166.06665698	0.00000000	62.82603000	17.32283000
166.26665697	0.00000000	62.08169000	17.36589000
166.46665696	0.00000000	61.70644000	17.36589000
166.66665695	0.00000000	61.66338000	17.36589000
166.86665693	0.00000000	61.62032000	17.32283000
167.06665692	0.00000000	61.28814000	16.94759000
167.26665691	0.00000000	60.91904000	16.20325000
167.46665690	0.00000000	61.33120000	15.87721000
167.66665689	0.00000000	62.03863000	16.16018000
167.86665687	0.00000000	62.82603000	16.52928000
168.06665686	0.00000000	63.20127000	16.20325000
168.26665685	0.00000000	63.24434000	16.25246000
168.46665684	0.00000000	63.24434000	16.94759000
168.66665683	0.00000000	63.24434000	17.32283000
168.86665682	0.00000000	63.20127000	17.36589000
169.06665680	0.00000000	62.82603000	17.36589000
169.26665679	0.00000000	62.08169000	17.36589000
169.46665678	0.00000000	61.70644000	17.36589000
169.66665677	0.00000000	61.66338000	17.36589000
169.86665676	0.00000000	61.66338000	17.32283000
170.06665674	0.00000000	61.66338000	16.99065000
170.26665673	0.00000000	61.70644000	16.62155000
170.46665672	0.00000000	62.08169000	16.99065000
170.66665671	0.00000000	62.82603000	17.32283000
170.86665670	0.00000000	63.20127000	17.36589000
171.06665668	0.00000000	63.24434000	17.32283000
171.26665667	0.00000000	63.24434000	16.99065000
171.46665666	0.00000000	63.24434000	16.62155000
171.66665665	0.00000000	63.20127000	16.89837000
171.86665664	0.00000000	62.86909000	16.52928000
172.06665663	0.00000000	62.45694000	15.50812000
172.26665661	0.00000000	62.45079000	15.87721000
172.46665660	0.00000000	62.03863000	16.85531000
172.66665659	0.00000000	61.70644000	16.94759000
172.86665658	0.00000000	61.70644000	16.62155000
173.06665657	0.00000000	62.03863000	16.99065000
173.26665655	0.00000000	62.45079000	17.32283000
173.46665654	0.00000000	62.45694000	17.36589000
173.66665653	0.00000000	62.86909000	17.36589000
173.86665652	0.00000000	63.20127000	17.36589000
174.06665651	0.00000000	63.20127000	17.36589000
174.26665649	0.00000000	62.82603000	17.32283000
174.46665648	0.00000000	62.08169000	16.99065000
174.66665647	0.00000000	61.70644000	16.57849000
174.86665646	0.00000000	61.66338000	16.61540000
175.06665645	0.00000000	61.66338000	16.53543000
175.26665644	0.00000000	61.66338000	16.57234000
175.46665642	0.00000000	61.66338000	16.20325000
175.66665641	0.00000000	61.66338000	16.25246000
175.86665640	0.00000000	61.66338000	16.94759000
176.06665639	0.00000000	61.66338000	17.32283000
176.26665638	0.00000000	61.66338000	17.36589000
176.46665636	0.00000000	61.66338000	17.36589000
176.66665635	0.00000000	61.70644000	17.36589000
176.86665634	0.00000000	62.03863000	17.32283000
177.06665633	0.00000000	62.40772000	16.94759000
177.26665632	0.00000000	62.03863000	16.20325000
177.46665630	0.00000000	61.70644000	15.87721000
177.66665629	0.00000000	61.66338000	16.16018000
177.86665628	0.00000000	61.66338000	16.52928000
178.06665627	0.00000000	61.66338000	16.16018000
178.26665626	0.00000000	61.66338000	15.87721000
178.46665625	0.00000000	61.66338000	16.20325000
178.66665623	0.00000000	61.66338000	16.94759000
178.86665622	0.00000000	61.66338000	17.32283000
179.06665621	0.00000000	61.66338000	17.36589000
179.26665620	0.00000000	61.66338000	17.36589000
179.46665619	0.00000000	61.70644000	17.36589000
179.66665617	0.00000000	62.03863000	17.32283000
179.86665616	0.00000000	62.40772000	16.99065000
180.06665615	0.00000000	62.03863000	16.57849000
180.26665614	0.00000000	61.70644000	16.57234000
180.46665613	0.00000000	61.66338000	16.16018000
180.66665611	0.00000000	61.66338000	15.82800000
180.86665610	0.00000000	61.66338000	15.82800000
181.06665609	0.00000000	61.66338000	16.20325000
181.26665608	0.00000000	61.66338000	16.94759000
181.46665607	0.00000000	61.66338000	17.32283000
181.66665606	0.00000000	61.66338000	17.36589000
181.86665604	0.00000000	61.66338000	17.36589000
182.06665603	0.00000000	61.66338000	17.36589000
182.26665602	0.00000000	61.66338000	17.36589000
182.46665601	0.00000000	61.66338000	17.36589000
182.66665600	0.00000000	61.66338000	17.32283000
182.86665598	0.00000000	61.66338000	16.94759000
183.06665597	0.00000000	61.66338000	16.20325000
183.26665596	0.00000000	61.66338000	15.82800000
183.46665595	0.00000000	61.66338000	15.78494000
183.66665594	0.00000000	61.66338000	15.78494000
183.86665592	0.00000000	61.66338000	15.82800000
184.06665591	0.00000000	61.66338000	16.20325000
184.26665590	0.00000000	61.66338000	16.94759000
184.46665589	0.00000000	61.66338000	17.32283000
184.66665588	0.00000000	61.66338000	17.36589000
184.86665587	0.00000000	61.66338000	17.40895000
185.06665585	0.00000000	61.66338000	17.74114000
185.26665584	0.00000000	61.66338000	18.11024000
185.46665583	0.00000000	61.66338000	17.74114000
185.66665582	0.00000000	61.66338000	17.40895000
185.86665581	0.00000000	61.66338000	17.27362000
186.06665579	0.00000000	61.70644000	16.57234000
186.26665578	0.00000000	62.03863000	15.50812000
186.46665577	0.00000000	62.40772000	15.87721000
186.66665576	0.00000000	62.03863000	16.85531000
186.86665575	0.00000000	61.70644000	16.89837000
187.06665573	0.00000000	61.66338000	16.25246000
187.26665572	0.00000000	61.66338000	16.25246000
187.46665571	0.00000000	61.66338000	16.94759000
187.66665570	0.00000000	61.66338000	17.32283000
187.86665569	0.00000000	61.66338000	17.36589000
188.06665568	0.00000000	61.66338000	17.36589000
188.26665566	0.00000000	61.66338000	17.32283000
188.46665565	0.00000000	61.66338000	16.94759000
188.66665564	0.00000000	61.66338000	16.20325000
188.86665563	0.00000000	61.70644000	15.82800000
189.06665562	0.00000000	62.03863000	15.78494000
189.26665560	0.00000000	62.40772000	15.78494000
189.46665559	0.00000000	62.08169000	15.78494000
189.66665558	0.00000000	62.08169000	15.78494000
189.86665557	0.00000000	62.40772000	15.82800000
190.06665556	0.00000000	62.03863000	16.16018000
190.26665554	0.00000000	61.70644000	16.52928000
190.46665553	0.00000000	61.66338000	16.20325000
190.66665552	0.00000000	61.66338000	16.25246000
190.86665551	0.00000000	61.66338000	16.94759000
191.06665550	0.00000000	61.66338000	17.32283000
191.26665549	0.00000000	61.66338000	17.36589000
191.46665547	0.00000000	61.66338000	17.36589000
191.66665546	0.00000000	61.66338000	17.36589000
191.86665545	0.00000000	61.66338000	17.32283000
192.06665544	0.00000000	61.66338000	16.94759000
192.26665543	0.00000000	61.66338000	16.20325000
192.46665541	0.00000000	61.66338000	15.82800000
192.66665540	0.00000000	61.66338000	15.78494000
192.86665539	0.00000000	61.66338000	15.78494000
193.06665538	0.00000000	61.66338000	15.78494000
193.26665537	0.00000000	61.66338000	15.82800000
193.46665535	0.00000000	61.66338000	16.20325000
193.66665534	0.00000000	61.66338000	16.94759000
193.86665533	0.00000000	61.66338000	17.32283000
194.06665532	0.00000000	61.66338000	17.36589000
194.26665531	0.00000000	61.66338000	17.36589000
194.46665530	0.00000000	61.70644000	17.36589000
194.66665528	0.00000000	62.03863000	17.36589000
194.86665527	0.00000000	62.40772000	17.32283000
195.06665526	0.00000000	62.03863000	16.99065000
195.26665525	0.00000000	61.70644000	16.57849000
195.46665524	0.00000000	61.66338000	16.57234000
195.66665522	0.00000000	61.66338000	16.16018000
195.86665521	0.00000000	61.66338000	15.82800000
196.06665520	0.00000000	61.66338000	15.78494000
