Time	Channel A	Channel B	Channel C
(us)	(V)	(mV)	(mV)

-4.49999956	0.00000000	77.06077000	31.57603000
-4.29999957	0.00000000	76.73474000	31.57603000
-4.09999958	0.00000000	77.10384000	31.61909000
-3.89999959	0.00000000	77.43602000	31.95128000
-3.69999960	0.00000000	77.43602000	32.32037000
-3.49999962	0.00000000	77.10384000	31.95128000
-3.29999963	0.00000000	76.69167000	31.61909000
-3.09999964	0.00000000	76.68553000	31.53297000
-2.89999965	0.00000000	76.31644000	31.20078000
-2.69999966	0.00000000	76.36565000	30.83784000
-2.49999968	0.00000000	77.06077000	31.20078000
-2.29999969	0.00000000	77.43602000	31.53297000
-2.09999970	0.00000000	77.43602000	31.57603000
-1.89999971	0.00000000	77.10384000	31.57603000
-1.69999972	0.00000000	76.69167000	31.57603000
-1.49999973	0.00000000	76.68553000	31.57603000
-1.29999975	0.00000000	76.27337000	31.57603000
-1.09999976	0.00000000	75.99039000	31.57603000
-0.89999977	0.00000000	76.31644000	31.57603000
-0.69999978	0.00000000	77.06077000	31.57603000
-0.49999979	0.00000000	77.43602000	31.57603000
-0.29999981	0.15871060	77.47908000	31.57603000
-0.09999982	0.63668800	77.47908000	31.57603000
0.10000017	0.95533960	77.43602000	31.57603000
0.30000016	1.11466500	77.10384000	31.57603000
0.50000015	0.95533960	76.73474000	31.57603000
0.70000013	0.47736220	77.06077000	31.57603000
0.90000012	-0.31803640	77.06077000	31.57603000
1.10000011	-1.27399100	76.73474000	31.57603000
1.30000010	-2.22994600	77.10384000	31.57603000
1.50000009	-2.86724900	77.43602000	31.61909000
1.70000008	-2.54859700	77.47908000	31.95128000
1.90000006	-1.59264300	77.47908000	32.32037000
2.10000005	0.15871060	77.47908000	31.95128000
2.30000004	2.22994600	77.47908000	31.61909000
2.50000003	4.14124000	77.43602000	31.57603000
2.70000002	5.25652100	77.10384000	31.57603000
2.90000000	4.93786900	76.69167000	31.57603000
3.09999999	3.34522600	76.68553000	31.57603000
3.29999998	0.47736220	76.27337000	31.57603000
3.49999997	-3.02657500	75.99039000	31.57603000
3.69999996	-6.05315000	76.31644000	31.57603000
3.89999994	-7.80511800	77.06077000	31.57603000
4.09999993	-7.64579200	77.43602000	31.57603000
4.29999992	-5.57517200	77.47908000	31.57603000
4.49999991	-1.75196900	77.47908000	31.57603000
4.69999990	2.70792300	77.47908000	31.57603000
4.89999989	6.69045300	77.43602000	31.53297000
5.09999987	9.07972400	77.06077000	31.15772000
5.29999986	9.23905000	76.31644000	30.41954000
5.49999985	7.16781500	75.94118000	30.09350000
5.69999984	3.18590100	75.89813000	30.37647000
5.89999983	-1.59264300	75.94118000	30.78248000
6.09999981	-6.05315000	76.27337000	30.79478000
6.29999980	-8.76107300	76.64246000	31.20078000
6.49999979	-9.39837600	76.31644000	31.53297000
6.69999978	-7.64579200	76.31644000	31.57603000
6.89999977	-3.98191400	76.64246000	31.57603000
7.09999975	0.15871060	76.27337000	31.57603000
7.29999974	4.14124000	75.94118000	31.57603000
7.49999973	7.00848900	75.89813000	31.57603000
7.69999972	7.64579200	75.89813000	31.53297000
7.89999971	6.53112700	75.89813000	31.15772000
8.09999970	3.98191400	75.89813000	30.41954000
8.29999968	0.63668800	75.89813000	30.09350000
8.49999967	-2.38927200	75.89813000	30.41954000
8.69999966	-4.45989200	75.89813000	31.11466000
8.89999965	-5.25652100	75.89813000	31.11466000
9.09999964	-4.61921700	75.89813000	30.46260000
9.29999962	-3.02657500	75.94118000	30.46260000
9.49999961	-0.95533960	76.27337000	31.15772000
9.69999960	0.79601380	76.64246000	31.53297000
9.89999959	2.07062000	76.27337000	31.57603000
10.09999958	2.54859700	75.94118000	31.57603000
10.29999956	2.22994600	75.89813000	31.57603000
10.49999955	1.59264300	75.94118000	31.57603000
10.69999954	0.63668800	76.27337000	31.57603000
10.89999953	-0.15871060	76.64246000	31.57603000
11.09999952	-0.63668800	76.27337000	31.57603000
11.29999951	-0.95533960	75.99039000	31.57603000
11.49999949	-0.95533960	76.27337000	31.57603000
11.69999948	-0.79601380	76.64246000	31.57603000
11.89999947	-0.47736220	76.27337000	31.57603000
12.09999946	-0.15871060	75.94118000	31.57603000
12.29999945	-0.15871060	75.89813000	31.57603000
12.49999943	-0.15871060	75.89813000	31.57603000
12.69999942	0.00000000	75.89813000	31.53297000
12.89999941	0.00000000	75.89813000	31.20078000
13.09999940	0.00000000	75.89813000	30.83784000
13.29999939	0.00000000	75.94118000	31.20078000
13.49999937	0.00000000	76.27337000	31.53297000
13.69999936	0.00000000	76.64246000	31.57603000
13.89999935	0.00000000	76.27337000	31.57603000
14.09999934	-0.15871060	75.94118000	31.57603000
14.29999933	-0.15871060	75.94118000	31.57603000
14.49999932	-0.15871060	76.27337000	31.57603000
14.69999930	-0.15871060	76.64246000	31.57603000
14.89999929	0.00000000	76.27337000	31.57603000
15.09999928	0.00000000	75.94118000	31.57603000
15.29999927	0.00000000	75.89813000	31.57603000
15.49999926	0.00000000	75.89813000	31.57603000
15.69999924	0.00000000	75.89813000	31.57603000
15.89999923	0.00000000	75.89813000	31.57603000
16.09999922	0.00000000	75.89813000	31.57603000
16.29999921	0.00000000	75.94118000	31.57603000
16.49999920	-0.15871060	76.31644000	31.57603000
16.69999919	-0.15871060	77.06077000	31.57603000
16.89999917	-0.15871060	77.43602000	31.57603000
17.09999916	0.00000000	77.47908000	31.57603000
17.29999915	0.00000000	77.47908000	31.57603000
17.49999914	0.00000000	77.47908000	31.57603000
17.69999913	0.00000000	77.47908000	31.57603000
17.89999911	0.00000000	77.43602000	31.57603000
18.09999910	0.00000000	77.01156000	31.57603000
18.29999909	0.00000000	75.85506000	31.57603000
18.49999908	0.00000000	74.31717000	31.57603000
18.69999907	0.00000000	72.77928000	31.57603000
18.89999905	0.00000000	71.62278000	31.57603000
19.09999904	0.00000000	71.29060000	31.57603000
19.29999903	0.00000000	72.08414000	31.57603000
19.49999902	0.00000000	74.45251000	31.57603000
19.69999901	0.00000000	77.89738000	31.57603000
19.89999900	0.00000000	81.80363000	31.53297000
20.09999898	0.00000000	85.24852000	31.20078000
20.29999897	0.00000000	87.52460000	30.79478000
20.49999896	0.00000000	87.43848000	30.83169000
20.69999895	0.00000000	84.36269000	30.79478000
20.89999894	0.00000000	78.88164000	31.20078000
21.09999892	0.00000000	71.89345000	31.48376000
21.29999891	0.00000000	64.17323000	31.15772000
21.49999890	0.00000000	58.07701000	30.41954000
21.69999889	0.00000000	55.41954000	30.09350000
21.89999888	0.00000000	57.37573000	30.37647000
22.09999886	0.00000000	64.06865000	30.73942000
22.29999885	0.00000000	74.55093000	30.37647000
22.49999884	0.00000000	87.65993000	30.09350000
22.69999883	0.00000000	99.53247000	30.41954000
22.89999882	0.00000000	106.88360000	31.15772000
23.09999881	0.00000000	107.96010000	31.53297000
23.29999879	0.00000000	101.67940000	31.61909000
23.49999878	0.00000000	88.50885000	31.99434000
23.69999877	0.00000000	71.10605000	32.73868000
23.89999876	0.00000000	53.37721000	33.11393000
24.09999875	0.00000000	39.51156000	33.11393000
24.29999873	0.00000000	33.40920000	32.68946000
24.49999872	0.00000000	36.94635000	31.53297000
24.69999871	0.00000000	50.11687000	30.00123000
24.89999870	0.00000000	70.21407000	28.42027000
25.09999869	0.00000000	92.64271000	26.88853000
25.29999867	0.00000000	112.69680000	25.72589000
25.49999866	0.00000000	125.35680000	25.39985000
25.69999865	0.00000000	126.84550000	26.19340000
25.89999864	0.00000000	116.42470000	28.55561000
26.09999863	0.00000000	96.32135000	32.04355000
26.29999862	0.00000000	71.24138000	36.31274000
26.49999860	0.00000000	46.91191000	40.50196000
26.69999859	0.00000000	29.17692000	43.14714000
26.89999858	0.00000000	22.20103000	43.10408000
27.09999857	0.00000000	27.59596000	39.99138000
27.29999856	0.00000000	43.79306000	34.18430000
27.49999854	0.00000000	67.00910000	26.83932000
27.69999853	0.00000000	92.08907000	19.50049000
27.89999852	0.00000000	113.34890000	13.69340000
28.09999851	0.00000000	125.73200000	10.67298000
28.29999850	0.00000000	126.88850000	11.55266000
28.49999848	0.00000000	116.51080000	17.35974000
28.69999847	0.00000000	97.25639000	27.06693000
28.89999846	0.00000000	74.49557000	38.68725000
29.09999845	0.00000000	53.14345000	50.62130000
29.29999844	0.00000000	37.69070000	59.36885000
29.49999843	0.00000000	31.04700000	62.05708000
29.69999841	0.00000000	34.48573000	57.78789000
29.89999840	0.00000000	46.40133000	47.33021000
30.09999839	0.00000000	63.84719000	32.64640000
30.29999838	0.00000000	83.15698000	16.80610000
30.49999837	0.00000000	100.14150000	3.28494100
30.69999835	0.00000000	110.65450000	-5.16732200
30.89999834	0.00000000	113.07210000	-6.23769700
31.09999833	0.00000000	108.04620000	1.10113200
31.29999832	0.00000000	96.45669000	15.36663000
31.49999831	0.00000000	81.05930000	33.15699000
31.69999829	0.00000000	65.98179000	50.95349000
31.89999828	0.00000000	54.30610000	65.16978000
32.09999827	0.00000000	48.07455000	72.13951000
32.29999826	0.00000000	48.02534000	70.23868000
32.49999825	0.00000000	53.79552000	60.56840000
32.69999824	0.00000000	63.84719000	44.68504000
32.89999822	0.00000000	75.80585000	25.81816000
33.09999821	0.00000000	87.01402000	8.43996000
33.29999820	0.00000000	94.74040000	-3.58636800
33.49999819	0.00000000	97.52706000	-8.28001900
33.69999818	0.00000000	95.20792000	-5.16732200
33.89999816	0.00000000	88.68725000	5.28420300
34.09999815	0.00000000	79.47834000	21.08145000
34.29999814	0.00000000	70.63853000	38.45964000
34.49999813	0.00000000	64.35777000	53.51254000
34.69999812	0.00000000	61.23892000	63.21973000
34.89999810	0.00000000	61.65723000	65.54503000
35.09999809	0.00000000	65.88951000	60.52534000
35.29999808	0.00000000	72.73621000	49.00344000
35.49999807	0.00000000	79.66904000	33.99360000
35.69999806	0.00000000	84.69488000	19.67889000
35.89999805	0.00000000	87.01402000	8.43996000
36.09999803	0.00000000	85.85753000	2.67593500
36.29999802	0.00000000	81.66830000	3.78937000
36.49999801	0.00000000	75.94118000	11.09129000
36.69999800	0.00000000	70.54626000	22.61319000
36.89999799	0.00000000	67.05216000	35.29773000
37.09999797	0.00000000	65.88951000	45.70620000
37.29999796	0.00000000	67.42741000	51.47023000
37.49999795	0.00000000	71.29060000	51.09497000
37.69999794	0.00000000	76.27337000	44.63582000
37.89999793	0.00000000	81.29305000	34.73794000
38.09999791	0.00000000	84.73794000	24.74778000
38.29999790	0.00000000	85.94365000	17.40280000
38.49999789	0.00000000	84.78715000	14.38238000
38.69999788	0.00000000	81.71136000	16.66462000
38.89999787	0.00000000	77.47908000	23.90502000
39.09999786	0.00000000	73.20374000	33.06471000
39.29999784	0.00000000	69.70964000	41.52312000
39.49999783	0.00000000	67.38435000	46.86885000
39.69999782	0.00000000	67.00910000	47.24409000
39.89999781	0.00000000	68.50394000	42.63656000
40.09999780	0.00000000	71.19833000	34.18430000
40.29999778	0.00000000	74.31717000	24.19414000
40.49999777	0.00000000	77.43602000	15.40969000
40.69999776	0.00000000	80.17347000	10.48228000
40.89999775	0.00000000	82.12967000	11.64493000
41.09999774	0.00000000	83.29231000	18.47318000
41.29999772	0.00000000	83.29231000	28.42027000
41.49999771	0.00000000	82.08661000	38.45349000
41.69999770	0.00000000	79.75516000	46.16756000
41.89999769	0.00000000	76.31644000	50.02460000
42.09999768	0.00000000	73.24680000	48.86811000
42.29999767	0.00000000	71.19833000	43.14714000
42.49999765	0.00000000	69.66658000	34.69488000
42.69999764	0.00000000	68.92224000	25.81816000
42.89999763	0.00000000	69.66658000	18.52239000
43.09999762	0.00000000	71.15526000	14.66535000
43.29999761	0.00000000	72.77928000	15.36048000
43.49999759	0.00000000	74.73548000	19.54355000
43.69999758	0.00000000	77.01156000	25.72589000
43.89999757	0.00000000	78.59251000	32.64640000
44.09999756	0.00000000	79.43528000	38.41043000
44.29999755	0.00000000	80.17347000	41.56618000
44.49999753	0.00000000	80.17347000	41.99065000
44.69999752	0.00000000	79.47834000	40.07751000
44.89999751	0.00000000	79.06004000	36.22662000
45.09999750	0.00000000	78.59251000	31.61909000
45.29999749	0.00000000	77.43602000	27.39296000
45.49999748	0.00000000	75.85506000	24.65551000
45.69999746	0.00000000	73.84965000	23.86196000
45.89999745	0.00000000	71.11221000	24.56324000
46.09999744	0.00000000	68.07948000	26.55635000
46.29999743	0.00000000	65.80339000	29.21383000
46.49999742	0.00000000	65.42815000	32.32037000
46.69999740	0.00000000	67.00910000	34.60261000
46.89999739	0.00000000	70.54626000	35.85138000
47.09999738	0.00000000	75.99039000	36.22047000
47.29999737	0.00000000	82.17889000	35.80217000
47.49999736	0.00000000	87.94906000	34.22736000
47.69999734	0.00000000	91.71383000	31.53297000
47.89999733	0.00000000	91.71383000	28.51255000
48.09999732	0.00000000	87.85679000	26.19340000
48.29999731	0.00000000	81.24999000	25.35679000
48.49999730	0.00000000	72.68700000	25.35679000
48.69999729	0.00000000	63.89025000	26.19340000
48.89999727	0.00000000	57.37573000	28.55561000
49.09999726	0.00000000	55.41954000	31.95128000
49.29999725	0.00000000	58.12008000	35.38385000
49.49999724	0.00000000	64.72686000	37.29700000
49.69999723	0.00000000	74.40329000	37.38312000
49.89999721	0.00000000	84.73794000	36.17741000
50.09999720	0.00000000	92.83341000	33.85211000
50.29999719	0.00000000	96.32135000	30.37647000
50.49999718	0.00000000	94.78961000	26.93159000
50.69999717	0.00000000	88.59498000	24.14493000
50.89999715	0.00000000	78.96776000	22.28100000
51.09999714	0.00000000	68.63311000	21.96112000
51.29999713	0.00000000	60.54379000	24.28026000
51.49999712	0.00000000	57.04970000	28.42027000
51.69999711	0.00000000	58.49532000	32.68946000
51.89999710	0.00000000	63.89025000	36.17741000
52.09999708	0.00000000	71.61663000	38.50270000
52.29999707	0.00000000	80.08734000	38.87795000
52.49999706	0.00000000	86.97095000	37.34006000
52.69999705	0.00000000	90.04675000	34.22736000
52.89999704	0.00000000	88.55191000	30.04429000
53.09999702	0.00000000	83.20619000	26.23647000
53.29999701	0.00000000	75.94118000	24.28026000
53.49999700	0.00000000	69.00836000	24.19414000
53.69999699	0.00000000	64.35777000	25.39985000
53.89999698	0.00000000	62.81988000	27.67593000
54.09999696	0.00000000	64.77608000	30.73942000
54.29999695	0.00000000	70.12794000	33.02165000
54.49999694	0.00000000	76.96850000	34.22736000
54.69999693	0.00000000	82.73868000	34.18430000
54.89999692	0.00000000	85.85753000	32.69562000
55.09999691	0.00000000	85.85753000	30.41954000
55.29999689	0.00000000	82.78174000	28.55561000
55.49999688	0.00000000	77.43602000	27.76821000
55.69999687	0.00000000	71.66584000	28.55561000
55.89999686	0.00000000	67.05216000	30.41954000
56.09999685	0.00000000	64.72686000	32.73868000
56.29999683	0.00000000	65.51427000	34.60261000
56.49999682	0.00000000	68.92224000	35.34079000
56.69999681	0.00000000	73.94193000	34.18430000
56.89999680	0.00000000	78.92471000	31.53297000
57.09999679	0.00000000	82.83096000	28.42027000
57.29999677	0.00000000	84.69488000	25.30758000
57.49999676	0.00000000	83.94438000	22.65625000
57.69999675	0.00000000	80.50565000	21.58587000
57.89999674	0.00000000	75.94118000	23.16683000
58.09999673	0.00000000	71.66584000	27.39296000
58.29999672	0.00000000	68.59006000	33.11393000
58.49999670	0.00000000	67.42741000	38.50270000
58.69999669	0.00000000	68.54699000	41.94144000
58.89999668	0.00000000	71.19833000	42.72884000
59.09999667	0.00000000	74.31717000	40.36663000
59.29999666	0.00000000	77.38681000	35.38385000
59.49999664	0.00000000	79.71210000	28.83858000
59.69999663	0.00000000	80.50565000	22.65625000
59.89999662	0.00000000	80.08734000	18.05487000
60.09999661	0.00000000	78.17421000	16.19710000
60.29999660	0.00000000	75.15379000	18.52239000
60.49999658	0.00000000	72.87155000	24.23720000
60.69999657	0.00000000	71.66584000	31.57603000
60.89999656	0.00000000	71.66584000	38.87795000
61.09999655	0.00000000	72.77928000	44.26673000
61.29999654	0.00000000	74.31717000	46.21678000
61.49999653	0.00000000	75.89813000	44.63582000
61.69999651	0.00000000	77.43602000	39.61614000
61.89999650	0.00000000	78.50639000	31.95128000
62.09999649	0.00000000	78.13115000	24.23720000
62.29999648	0.00000000	76.27337000	18.05487000
62.49999647	0.00000000	74.36023000	14.62229000
62.69999645	0.00000000	72.77928000	15.40969000
62.89999644	0.00000000	71.62278000	19.91880000
63.09999643	0.00000000	71.29060000	26.51329000
63.29999642	0.00000000	72.04109000	33.48917000
63.49999641	0.00000000	73.98499000	40.03444000
63.69999639	0.00000000	76.27337000	44.26673000
63.89999638	0.00000000	78.54945000	45.06028000
64.09999637	0.00000000	79.71210000	42.77190000
64.29999636	0.00000000	79.34301000	37.75836000
64.49999635	0.00000000	78.22342000	31.57603000
64.69999634	0.00000000	76.23032000	25.44291000
64.89999632	0.00000000	73.98499000	20.80462000
65.09999631	0.00000000	72.04109000	19.17446000
65.29999630	0.00000000	71.29060000	19.50049000
65.49999629	0.00000000	71.62278000	21.45669000
65.69999628	0.00000000	72.77928000	24.93233000
65.89999626	0.00000000	74.31717000	28.79552000
66.09999625	0.00000000	75.85506000	32.68946000
66.29999624	0.00000000	76.96850000	35.80217000
66.49999623	0.00000000	76.96850000	37.80142000
66.69999622	0.00000000	75.85506000	38.96407000
66.89999620	0.00000000	74.31717000	38.92101000
67.09999619	0.00000000	72.77928000	37.38312000
67.29999618	0.00000000	71.66584000	34.73794000
67.49999617	0.00000000	71.70891000	31.95128000
67.69999616	0.00000000	73.20374000	29.16461000
67.89999615	0.00000000	75.52288000	25.63976000
68.09999613	0.00000000	77.81126000	22.23794000
68.29999612	0.00000000	79.75516000	19.91880000
68.49999611	0.00000000	80.46259000	19.54355000
68.69999610	0.00000000	79.66904000	21.08145000
68.89999609	0.00000000	76.96850000	24.23720000
69.09999607	0.00000000	73.11147000	28.88779000
69.29999606	0.00000000	69.24213000	34.27042000
69.49999605	0.00000000	65.80339000	38.92101000
69.69999604	0.00000000	64.30856000	42.03371000
69.89999603	0.00000000	65.47121000	43.14714000
70.09999601	0.00000000	68.96530000	41.56618000
70.29999600	0.00000000	74.36023000	37.34006000
70.49999599	0.00000000	80.13041000	31.53297000
70.69999598	0.00000000	84.73794000	25.35064000
70.89999597	0.00000000	87.06323000	20.01107000
71.09999596	0.00000000	86.27583000	17.31053000
71.29999594	0.00000000	82.83096000	18.05487000
71.49999593	0.00000000	77.38681000	21.45669000
71.69999592	0.00000000	71.19833000	26.46407000
71.89999591	0.00000000	65.42815000	31.48376000
72.09999590	0.00000000	61.56496000	35.80217000
72.29999588	0.00000000	60.81446000	38.82874000
72.49999587	0.00000000	63.10285000	39.61614000
72.69999586	0.00000000	68.12868000	37.75836000
72.89999585	0.00000000	74.31717000	34.68873000
73.09999584	0.00000000	80.50565000	31.20078000
73.29999582	0.00000000	85.52534000	27.76821000
73.49999581	0.00000000	87.81372000	25.86122000
73.69999580	0.00000000	87.06323000	25.77510000
73.89999579	0.00000000	83.20619000	26.88853000
74.09999578	0.00000000	77.47908000	28.42027000
74.29999577	0.00000000	71.66584000	29.95201000
74.49999575	0.00000000	67.00910000	31.06545000
74.69999574	0.00000000	64.30856000	31.06545000
74.89999573	0.00000000	64.26550000	29.95201000
75.09999572	0.00000000	66.54158000	28.42027000
75.29999571	0.00000000	70.03568000	26.97465000
75.49999569	0.00000000	74.27411000	26.61171000
75.69999568	0.00000000	78.13115000	28.13730000
75.89999567	0.00000000	80.46259000	30.46260000
76.09999566	0.00000000	81.29305000	33.57529000
76.29999565	0.00000000	80.50565000	36.96481000
76.49999563	0.00000000	78.64173000	38.82874000
76.69999562	0.00000000	76.31644000	38.45349000
76.89999561	0.00000000	74.40945000	35.71604000
77.09999560	0.00000000	73.20374000	31.15772000
77.29999559	0.00000000	72.82849000	26.10113000
77.49999558	0.00000000	73.15452000	21.86270000
77.69999556	0.00000000	73.89886000	18.80536000
77.89999555	0.00000000	74.27411000	18.47318000
78.09999554	0.00000000	74.27411000	21.12451000
78.29999553	0.00000000	73.89886000	25.77510000
78.49999552	0.00000000	73.15452000	31.57603000
78.69999550	0.00000000	72.77928000	37.34006000
78.89999549	0.00000000	72.77928000	41.56618000
79.09999548	0.00000000	73.24680000	43.10408000
79.29999547	0.00000000	74.78469000	41.56618000
79.49999546	0.00000000	77.06077000	37.38312000
79.69999544	0.00000000	78.96776000	31.99434000
79.89999543	0.00000000	80.13041000	26.97465000
80.09999542	0.00000000	80.08734000	23.03149000
80.29999541	0.00000000	78.54945000	20.70620000
80.49999540	0.00000000	75.85506000	19.91880000
80.69999539	0.00000000	72.77928000	21.12451000
80.89999537	0.00000000	70.08488000	24.15108000
81.09999536	0.00000000	68.54699000	28.00197000
81.29999535	0.00000000	68.54699000	31.48991000
81.49999534	0.00000000	70.08488000	34.27042000
81.69999533	0.00000000	72.77928000	36.22662000
81.89999531	0.00000000	75.85506000	37.38312000
82.09999530	0.00000000	78.54945000	37.38312000
82.29999529	0.00000000	80.08734000	36.22662000
82.49999528	0.00000000	80.13041000	34.27042000
82.69999527	0.00000000	78.96776000	31.57603000
82.89999525	0.00000000	77.06077000	28.83858000
83.09999524	0.00000000	74.73548000	26.46407000
83.29999523	0.00000000	72.82849000	24.14493000
83.49999522	0.00000000	71.62278000	22.65625000
83.69999521	0.00000000	71.24754000	22.61319000
83.89999520	0.00000000	71.62278000	23.77584000
84.09999518	0.00000000	72.73621000	25.77510000
84.29999517	0.00000000	73.89886000	28.88779000
84.49999516	0.00000000	74.64935000	32.68946000
84.69999515	0.00000000	75.06151000	35.80217000
84.89999514	0.00000000	74.69241000	37.75836000
85.09999512	0.00000000	74.36023000	38.50270000
85.29999511	0.00000000	74.36023000	37.29700000
85.49999510	0.00000000	74.73548000	34.22736000
85.69999509	0.00000000	75.47981000	30.00123000
85.89999508	0.00000000	75.85506000	25.72589000
86.09999506	0.00000000	75.85506000	22.28100000
86.29999505	0.00000000	75.47981000	20.38632000
86.49999504	0.00000000	74.69241000	21.12451000
86.69999503	0.00000000	73.89886000	23.81890000
86.89999502	0.00000000	72.73621000	27.67593000
87.09999501	0.00000000	71.62278000	32.32037000
87.29999499	0.00000000	71.19833000	36.13435000
87.49999498	0.00000000	71.24754000	38.50270000
87.69999497	0.00000000	72.04109000	38.82874000
87.89999496	0.00000000	73.94193000	36.92175000
88.09999495	0.00000000	75.80585000	33.06471000
88.29999493	0.00000000	77.01156000	28.51255000
88.49999492	0.00000000	77.43602000	24.61245000
88.69999491	0.00000000	77.43602000	22.33022000
88.89999490	0.00000000	76.96850000	21.91806000
89.09999489	0.00000000	75.43060000	23.86196000
89.29999487	0.00000000	73.20374000	27.30684000
89.49999486	0.00000000	71.66584000	31.53297000
89.69999485	0.00000000	71.19833000	35.34079000
89.89999484	0.00000000	71.19833000	37.29700000
90.09999483	0.00000000	71.62278000	37.29700000
90.29999482	0.00000000	72.77928000	35.34079000
90.49999480	0.00000000	74.27411000	31.53297000
90.69999479	0.00000000	75.43060000	27.30684000
90.89999478	0.00000000	75.85506000	23.86196000
91.09999477	0.00000000	75.89813000	21.96112000
91.29999476	0.00000000	75.85506000	22.70546000
91.49999474	0.00000000	75.52288000	25.39985000
91.69999473	0.00000000	75.11072000	29.30610000
91.89999472	0.00000000	75.10458000	34.22736000
92.09999471	-0.15871060	74.73548000	38.03519000
92.29999470	0.00000000	74.73548000	39.24704000
92.49999468	0.00000000	75.06151000	38.50270000
92.69999467	0.00000000	74.64935000	35.71604000
92.89999466	0.00000000	73.94193000	31.15772000
93.09999465	0.00000000	73.11147000	26.19340000
93.29999464	0.00000000	72.36097000	22.74852000
93.49999463	0.00000000	71.57356000	21.54281000
93.69999461	0.00000000	71.24754000	22.70546000
93.89999460	0.00000000	71.66584000	25.77510000
94.09999459	0.00000000	73.20374000	30.04429000
94.29999458	0.00000000	75.47981000	34.60261000
94.49999457	0.00000000	77.43602000	38.03519000
94.69999455	0.00000000	79.01697000	38.82874000
94.89999454	0.00000000	80.13041000	37.34006000
95.09999453	0.00000000	80.08734000	34.22736000
95.29999452	0.00000000	78.50639000	30.00123000
95.49999451	0.00000000	75.43060000	25.81816000
95.69999449	0.00000000	71.62278000	23.12377000
95.89999448	0.00000000	68.50394000	22.69931000
96.09999447	0.00000000	66.59079000	24.19414000
96.29999446	0.00000000	66.22169000	26.93159000
96.49999445	0.00000000	68.12868000	30.37647000
96.69999444	0.00000000	71.19833000	33.80905000
96.89999442	0.00000000	74.73548000	35.71604000
97.09999441	0.00000000	78.59251000	35.75910000
97.29999440	0.00000000	81.66830000	34.22736000
97.49999439	0.00000000	83.20619000	31.57603000
97.69999438	0.00000000	82.83096000	28.88164000
97.89999436	0.00000000	80.50565000	26.93159000
98.09999435	0.00000000	77.01156000	25.77510000
98.29999434	0.00000000	72.73621000	25.77510000
98.49999433	0.00000000	68.54699000	26.88853000
98.69999432	0.00000000	65.84645000	28.37721000
98.89999430	0.00000000	65.37893000	29.58292000
99.09999429	0.00000000	66.54158000	30.37647000
99.29999428	0.00000000	68.87303000	31.11466000
99.49999427	0.00000000	72.36097000	31.15772000
99.69999426	0.00000000	75.85506000	30.79478000
99.89999425	0.00000000	78.96776000	30.83169000
100.09999423	0.00000000	81.24999000	30.79478000
100.29999422	0.00000000	81.62524000	31.20078000
100.49999421	0.00000000	80.17347000	31.53297000
100.69999420	0.00000000	77.81126000	31.53297000
100.89999419	0.00000000	75.10458000	31.11466000
101.09999417	0.00000000	71.99188000	29.95201000
101.29999416	0.00000000	69.70964000	28.42027000
101.49999415	0.00000000	68.46087000	26.88853000
101.69999414	0.00000000	68.08563000	25.72589000
101.89999413	0.00000000	68.50394000	25.35679000
102.09999411	0.00000000	70.04182000	25.77510000
102.29999410	0.00000000	72.36097000	27.34990000
102.49999409	0.00000000	74.69241000	30.00123000
102.69999408	0.00000000	77.01156000	32.69562000
102.89999407	0.00000000	78.54945000	34.64567000
103.09999406	0.00000000	78.96776000	35.80217000
103.29999404	0.00000000	78.54945000	35.71604000
103.49999403	0.00000000	77.01156000	33.80905000
103.69999402	0.00000000	74.73548000	30.41954000
103.89999401	0.00000000	72.77928000	27.34990000
104.09999400	0.00000000	71.19833000	25.35064000
104.29999398	0.00000000	70.04182000	24.19414000
104.49999397	0.00000000	69.66658000	24.23720000
104.69999396	0.00000000	70.04182000	25.77510000
104.89999395	0.00000000	71.19833000	28.46333000
105.09999394	0.00000000	72.73621000	31.48991000
105.29999392	0.00000000	74.27411000	33.85211000
105.49999391	0.00000000	75.43060000	35.02091000
105.69999390	0.00000000	75.85506000	35.38385000
105.89999389	0.00000000	75.85506000	34.18430000
106.09999388	0.00000000	75.43060000	31.57603000
106.29999387	0.00000000	74.31717000	28.88164000
106.49999385	0.00000000	73.20374000	26.97465000
106.69999384	0.00000000	72.77928000	26.14419000
106.89999383	0.00000000	72.77928000	26.55635000
107.09999382	0.00000000	73.15452000	27.67593000
107.29999381	0.00000000	73.94193000	29.62598000
107.49999379	0.00000000	74.69241000	31.53297000
107.69999378	0.00000000	75.43060000	33.02165000
107.89999377	0.00000000	75.43060000	33.43381000
108.09999376	0.00000000	74.69241000	32.32653000
108.29999375	0.00000000	73.94193000	31.20078000
108.49999374	0.00000000	73.11147000	29.95201000
108.69999372	0.00000000	72.36097000	28.46333000
108.89999371	0.00000000	71.62278000	27.30684000
109.09999370	0.00000000	71.66584000	26.93159000
109.29999369	0.00000000	72.73621000	27.34990000
109.49999368	0.00000000	73.89886000	28.88164000
109.69999366	0.00000000	74.69241000	31.11466000
109.89999365	0.00000000	75.47981000	32.64640000
110.09999364	0.00000000	75.85506000	33.06471000
110.29999363	0.00000000	75.85506000	32.68946000
110.49999362	0.00000000	75.43060000	31.53297000
110.69999360	0.00000000	74.27411000	30.00123000
110.89999359	0.00000000	72.77928000	28.46333000
111.09999358	0.00000000	71.62278000	27.30684000
111.29999357	0.00000000	71.24754000	26.88238000
111.49999356	0.00000000	71.57356000	26.88238000
111.69999355	0.00000000	72.36097000	27.25763000
111.89999353	0.00000000	73.11147000	28.04503000
112.09999352	0.00000000	73.94193000	28.83858000
112.29999351	0.00000000	74.69241000	30.00123000
112.49999350	0.00000000	75.43060000	31.11466000
112.69999349	0.00000000	75.43060000	31.53297000
112.89999347	0.00000000	74.73548000	31.53297000
113.09999346	0.00000000	74.31717000	31.15772000
113.29999345	0.00000000	73.89886000	30.41954000
113.49999344	0.00000000	73.15452000	30.04429000
113.69999343	0.00000000	72.77928000	29.95817000
113.89999341	0.00000000	72.73621000	29.58292000
114.09999340	0.00000000	72.73621000	28.83858000
114.29999339	0.00000000	72.73621000	28.46333000
114.49999338	0.00000000	72.77928000	28.42027000
114.69999337	0.00000000	73.15452000	28.42027000
114.89999336	0.00000000	73.89886000	28.37721000
115.09999334	0.00000000	74.27411000	28.04503000
115.29999333	0.00000000	74.31717000	27.67593000
115.49999332	0.00000000	74.31717000	28.08809000
115.69999331	0.00000000	74.27411000	28.79552000
115.89999330	0.00000000	73.89886000	29.62598000
116.09999328	0.00000000	73.15452000	30.37647000
116.29999327	0.00000000	72.73621000	31.15772000
116.49999326	0.00000000	72.36097000	31.53297000
116.69999325	0.00000000	71.99188000	31.53297000
116.89999324	0.00000000	72.36097000	31.15772000
117.09999322	0.00000000	72.73621000	30.37647000
117.29999321	0.00000000	73.15452000	29.62598000
117.49999320	0.00000000	73.94193000	28.79552000
117.69999319	0.00000000	74.69241000	28.04503000
117.89999318	0.00000000	75.47981000	27.30684000
118.09999317	0.00000000	75.80585000	27.34990000
118.29999315	0.00000000	75.43060000	28.42027000
118.49999314	0.00000000	74.27411000	29.53371000
118.69999313	0.00000000	72.77928000	30.00123000
118.89999312	0.00000000	71.62278000	30.41954000
119.09999311	0.00000000	71.19833000	31.15772000
119.29999309	0.00000000	71.15526000	31.53297000
119.49999308	0.00000000	71.19833000	31.53297000
119.69999307	0.00000000	71.57356000	31.15772000
119.89999306	0.00000000	72.36097000	30.41954000
120.09999305	0.00000000	73.15452000	30.00123000
120.29999303	0.00000000	74.31717000	29.58292000
120.49999302	0.00000000	75.43060000	28.83858000
120.69999301	0.00000000	75.85506000	28.46333000
120.89999300	0.00000000	75.85506000	28.42027000
121.09999299	0.00000000	75.43060000	28.42027000
121.29999298	0.00000000	74.31717000	28.46333000
121.49999296	0.00000000	73.15452000	28.83858000
121.69999295	0.00000000	72.36097000	29.58292000
121.89999294	0.00000000	71.57356000	29.95817000
122.09999293	0.00000000	71.19833000	30.00123000
122.29999292	0.00000000	71.15526000	30.00123000
122.49999290	0.00000000	71.19833000	30.04429000
122.69999289	0.00000000	71.62278000	30.41954000
122.89999288	0.00000000	72.73621000	31.15772000
123.09999287	0.00000000	73.89886000	31.48376000
123.29999286	0.00000000	74.69241000	31.15772000
123.49999284	0.00000000	75.47981000	30.41954000
123.69999283	0.00000000	75.80585000	30.04429000
123.89999282	0.00000000	75.47981000	29.95817000
124.09999281	0.00000000	74.73548000	29.62598000
124.29999280	0.00000000	74.31717000	29.21383000
124.49999279	0.00000000	73.84965000	29.20767000
124.69999277	0.00000000	72.73621000	28.79552000
124.89999276	0.00000000	71.62278000	28.51255000
125.09999275	0.00000000	71.19833000	28.83858000
125.29999274	0.00000000	71.15526000	29.58292000
125.49999273	0.00000000	71.19833000	29.95817000
125.69999271	0.00000000	71.57356000	30.00123000
125.89999270	0.00000000	72.36097000	30.00123000
126.09999269	0.00000000	73.11147000	30.00123000
126.29999268	0.00000000	73.94193000	30.00123000
126.49999267	0.00000000	74.69241000	30.00123000
126.69999265	0.00000000	75.43060000	29.95817000
126.89999264	0.00000000	75.38755000	29.58292000
127.09999263	0.00000000	74.31717000	28.83858000
127.29999262	0.00000000	73.15452000	28.46333000
127.49999261	0.00000000	72.36097000	28.42027000
127.69999260	0.00000000	71.57356000	28.42027000
127.89999258	0.00000000	71.19833000	28.42027000
128.09999257	0.00000000	71.19833000	28.46333000
128.29999256	0.00000000	71.62278000	28.83858000
128.49999255	0.00000000	72.77928000	29.58292000
128.69999254	0.00000000	74.27411000	29.95817000
128.89999252	0.00000000	75.38755000	30.00123000
129.09999251	0.00000000	75.43060000	29.95817000
129.29999250	0.00000000	74.73548000	29.58292000
129.49999249	0.00000000	74.31717000	28.83858000
129.69999248	0.00000000	73.84965000	28.46333000
129.89999246	0.00000000	72.73621000	28.42027000
130.09999245	0.00000000	71.62278000	28.42027000
130.29999244	0.00000000	71.19833000	28.46333000
130.49999243	0.00000000	71.19833000	28.83858000
130.69999242	0.00000000	71.57356000	29.58292000
130.89999241	0.00000000	72.36097000	29.95817000
131.09999239	0.00000000	73.11147000	29.95817000
131.29999238	0.00000000	73.89886000	29.58292000
131.49999237	0.00000000	74.27411000	28.83858000
131.69999236	0.00000000	74.27411000	28.46333000
131.89999235	0.00000000	73.89886000	28.42027000
132.09999233	0.00000000	73.15452000	28.42027000
132.29999232	0.00000000	72.77928000	28.42027000
132.49999231	0.00000000	72.73621000	28.46333000
132.69999230	0.00000000	72.73621000	28.83858000
132.89999229	0.00000000	72.73621000	29.58292000
133.09999227	0.00000000	72.73621000	30.00123000
133.29999226	0.00000000	72.73621000	30.41954000
133.49999225	0.00000000	72.73621000	31.11466000
133.69999224	0.00000000	72.73621000	31.11466000
133.89999223	0.00000000	72.73621000	30.37647000
134.09999222	0.00000000	72.73621000	29.62598000
134.29999220	0.00000000	72.73621000	28.79552000
134.49999219	0.00000000	72.73621000	28.04503000
134.69999218	0.00000000	72.77928000	27.25763000
134.89999217	0.00000000	73.11147000	26.93159000
135.09999216	0.00000000	73.48056000	27.25763000
135.29999214	0.00000000	73.15452000	28.00197000
135.49999213	0.00000000	73.15452000	28.42027000
135.69999212	0.00000000	73.48056000	28.83858000
135.89999211	0.00000000	73.11147000	29.58292000
136.09999210	0.00000000	72.77928000	29.95817000
136.29999208	0.00000000	72.69316000	30.00123000
136.49999207	0.00000000	72.31791000	30.00123000
136.69999206	0.00000000	71.62278000	30.00123000
136.89999205	0.00000000	71.62278000	30.00123000
137.09999204	0.00000000	72.31791000	29.95817000
137.29999203	0.00000000	72.73621000	29.58292000
137.49999201	0.00000000	73.15452000	28.83858000
137.69999200	0.00000000	73.89886000	28.46333000
137.89999199	0.00000000	74.27411000	28.42027000
138.09999198	0.00000000	74.31717000	28.42027000
138.29999197	0.00000000	74.27411000	28.37721000
138.49999195	0.00000000	73.84965000	28.04503000
138.69999194	0.00000000	72.73621000	27.72515000
138.89999193	0.00000000	71.62278000	28.46333000
139.09999192	0.00000000	71.24754000	29.53371000
139.29999191	0.00000000	71.57356000	30.00123000
139.49999189	0.00000000	72.31791000	30.41954000
139.69999188	0.00000000	72.73621000	31.15772000
139.89999187	0.00000000	73.15452000	31.48376000
140.09999186	0.00000000	73.89886000	31.15772000
140.29999185	0.00000000	74.27411000	30.37647000
140.49999184	0.00000000	74.27411000	29.62598000
140.69999182	0.00000000	73.89886000	28.83858000
140.89999181	0.00000000	73.15452000	28.46333000
141.09999180	0.00000000	72.77928000	28.42027000
141.29999179	0.00000000	72.73621000	28.42027000
141.49999178	0.00000000	72.73621000	28.46333000
141.69999176	0.00000000	72.73621000	28.83858000
141.89999175	0.00000000	72.73621000	29.62598000
142.09999174	0.00000000	72.77928000	30.37647000
142.29999173	0.00000000	73.15452000	31.15772000
142.49999172	0.00000000	73.84965000	31.48376000
142.69999170	0.00000000	73.84965000	31.11466000
142.89999169	0.00000000	73.15452000	30.00123000
143.09999168	0.00000000	72.77928000	28.88779000
143.29999167	0.00000000	72.73621000	28.42027000
143.49999166	0.00000000	72.73621000	28.00197000
143.69999165	0.00000000	72.73621000	27.25763000
143.89999163	0.00000000	72.73621000	26.93159000
144.09999162	0.00000000	72.73621000	27.25763000
144.29999161	0.00000000	72.73621000	28.04503000
144.49999160	0.00000000	72.73621000	28.79552000
144.69999159	0.00000000	72.73621000	29.58292000
144.89999157	0.00000000	72.73621000	29.95817000
145.09999156	0.00000000	72.73621000	30.00123000
145.29999155	0.00000000	72.73621000	30.00123000
145.49999154	0.00000000	72.69316000	29.95817000
145.69999153	0.00000000	72.31791000	29.58292000
145.89999151	0.00000000	71.57356000	28.79552000
146.09999150	0.00000000	71.24754000	28.04503000
146.29999149	0.00000000	71.53051000	27.25763000
146.49999148	0.00000000	71.94266000	26.93159000
146.69999147	0.00000000	71.94881000	27.25763000
146.89999146	0.00000000	72.36097000	28.00197000
147.09999144	0.00000000	72.69316000	28.42027000
147.29999143	0.00000000	72.73621000	28.83858000
147.49999142	0.00000000	72.73621000	29.58292000
147.69999141	0.00000000	72.73621000	29.95817000
147.89999140	0.00000000	72.73621000	30.00123000
148.09999138	0.00000000	72.69316000	30.00123000
148.29999137	0.00000000	72.31791000	30.00123000
148.49999136	0.00000000	71.62278000	29.95817000
148.69999135	0.00000000	71.62278000	29.58292000
148.89999134	0.00000000	72.31791000	28.83858000
149.09999132	0.00000000	72.69316000	28.46333000
149.29999131	0.00000000	72.73621000	28.42027000
149.49999130	0.00000000	72.73621000	28.42027000
149.69999129	0.00000000	72.73621000	28.42027000
149.89999128	0.00000000	72.73621000	28.46333000
150.09999127	0.00000000	72.73621000	28.83858000
150.29999125	0.00000000	72.69316000	29.58292000
150.49999124	0.00000000	72.36097000	29.95817000
150.69999123	0.00000000	71.94881000	30.00123000
150.89999122	0.00000000	71.94266000	30.00123000
151.09999121	0.00000000	71.57356000	30.00123000
151.29999119	0.00000000	71.62278000	30.00123000
151.49999118	0.00000000	72.31791000	29.95817000
151.69999117	0.00000000	72.69316000	29.58292000
151.89999116	0.00000000	72.73621000	28.83858000
152.09999115	0.00000000	72.73621000	28.46333000
152.29999113	0.00000000	72.73621000	28.42027000
152.49999112	0.00000000	72.73621000	28.42027000
152.69999111	0.00000000	72.73621000	28.42027000
152.89999110	0.00000000	72.73621000	28.46333000
153.09999109	0.00000000	72.73621000	28.79552000
153.29999108	0.00000000	72.73621000	29.20767000
153.49999106	0.00000000	72.69316000	29.21383000
153.69999105	0.00000000	72.31791000	29.62598000
153.89999104	0.00000000	71.57356000	29.95817000
154.09999103	0.00000000	71.19833000	29.95817000
154.29999102	0.00000000	71.15526000	29.62598000
154.49999100	0.00000000	71.19833000	29.25689000
154.69999099	0.00000000	71.57356000	29.58292000
154.89999098	0.00000000	72.31791000	29.53371000
155.09999097	0.00000000	72.69316000	28.83858000
155.29999096	0.00000000	72.73621000	28.46333000
155.49999094	0.00000000	72.73621000	28.42027000
155.69999093	0.00000000	72.73621000	28.42027000
155.89999092	0.00000000	72.73621000	28.46333000
156.09999091	0.00000000	72.73621000	28.83858000
156.29999090	0.00000000	72.69316000	29.58292000
156.49999089	0.00000000	72.31791000	29.95817000
156.69999087	0.00000000	71.57356000	30.00123000
156.89999086	0.00000000	71.19833000	30.00123000
157.09999085	0.00000000	71.15526000	30.00123000
157.29999084	0.00000000	71.15526000	29.95817000
157.49999083	0.00000000	71.19833000	29.58292000
157.69999081	0.00000000	71.57356000	28.83858000
157.89999080	0.00000000	72.31791000	28.46333000
158.09999079	0.00000000	72.69316000	28.42027000
158.29999078	0.00000000	72.73621000	28.42027000
158.49999077	0.00000000	72.73621000	28.42027000
158.69999075	0.00000000	72.73621000	28.42027000
158.89999074	0.00000000	72.73621000	28.42027000
159.09999073	0.00000000	72.69316000	28.46333000
159.29999072	0.00000000	72.31791000	28.83858000
159.49999071	0.00000000	71.57356000	29.58292000
159.69999070	0.00000000	71.19833000	29.95817000
159.89999068	0.00000000	71.15526000	30.00123000
160.09999067	0.00000000	71.15526000	30.00123000
160.29999066	0.00000000	71.15526000	29.95817000
160.49999065	0.00000000	71.15526000	29.58292000
160.69999064	0.00000000	71.19833000	28.83858000
160.89999062	0.00000000	71.57356000	28.46333000
161.09999061	0.00000000	72.31791000	28.42027000
161.29999060	0.00000000	72.69316000	28.42027000
161.49999059	0.00000000	72.73621000	28.42027000
161.69999058	0.00000000	72.73621000	28.42027000
161.89999056	0.00000000	72.73621000	28.42027000
162.09999055	0.00000000	72.73621000	28.42027000
162.29999054	0.00000000	72.73621000	28.42027000
162.49999053	0.00000000	72.73621000	28.42027000
162.69999052	0.00000000	72.69316000	28.46333000
162.89999051	0.00000000	72.31791000	28.79552000
163.09999049	0.00000000	71.57356000	29.16461000
163.29999048	0.00000000	71.19833000	28.79552000
163.49999047	0.00000000	71.15526000	28.46333000
163.69999046	0.00000000	71.15526000	28.42027000
163.89999045	0.00000000	71.15526000	28.42027000
164.09999043	0.00000000	71.19833000	28.42027000
164.29999042	0.00000000	71.57356000	28.42027000
164.49999041	0.00000000	72.31791000	28.42027000
164.69999040	0.00000000	72.69316000	28.42027000
164.89999039	0.00000000	72.73621000	28.42027000
165.09999037	0.00000000	72.73621000	28.42027000
165.29999036	0.00000000	72.73621000	28.42027000
165.49999035	0.00000000	72.69316000	28.42027000
165.69999034	0.00000000	72.31791000	28.42027000
165.89999033	0.00000000	71.57356000	28.42027000
166.09999032	0.00000000	71.19833000	28.42027000
166.29999030	0.00000000	71.15526000	28.46333000
166.49999029	0.00000000	71.15526000	28.83858000
166.69999028	0.00000000	71.15526000	29.53371000
166.89999027	0.00000000	71.15526000	29.58292000
167.09999026	0.00000000	71.19833000	29.21383000
167.29999024	0.00000000	71.57356000	29.20767000
167.49999023	0.00000000	72.31791000	28.79552000
167.69999022	0.00000000	72.69316000	28.46333000
167.89999021	0.00000000	72.73621000	28.42027000
168.09999020	0.00000000	72.73621000	28.42027000
168.29999018	0.00000000	72.73621000	28.46333000
168.49999017	0.00000000	72.73621000	28.79552000
168.69999016	0.00000000	72.69316000	29.16461000
168.89999015	0.00000000	72.31791000	28.79552000
169.09999014	0.00000000	71.57356000	28.51255000
169.29999013	0.00000000	71.19833000	28.83858000
169.49999011	0.00000000	71.15526000	29.58292000
169.69999010	0.00000000	71.15526000	29.90895000
169.89999009	0.00000000	71.15526000	29.58292000
170.09999008	0.00000000	71.19833000	28.83858000
170.29999007	0.00000000	71.53051000	28.46333000
170.49999005	0.00000000	71.94266000	28.42027000
170.69999004	0.00000000	71.94881000	28.42027000
170.89999003	0.00000000	72.36097000	28.42027000
171.09999002	0.00000000	72.69316000	28.42027000
171.29999001	0.00000000	72.73621000	28.42027000
171.49998999	0.00000000	72.73621000	28.42027000
171.69998998	0.00000000	72.73621000	28.42027000
171.89998997	0.00000000	72.69316000	28.42027000
172.09998996	0.00000000	72.31791000	28.42027000
172.29998995	0.00000000	71.57356000	28.42027000
172.49998994	0.00000000	71.19833000	28.42027000
172.69998992	0.00000000	71.15526000	28.42027000
172.89998991	0.00000000	71.15526000	28.42027000
173.09998990	0.00000000	71.15526000	28.42027000
173.29998989	0.00000000	71.15526000	28.42027000
173.49998988	0.00000000	71.19833000	28.42027000
173.69998986	0.00000000	71.57356000	28.42027000
173.89998985	0.00000000	72.26870000	28.42027000
174.09998984	0.00000000	72.26870000	28.42027000
174.29998983	0.00000000	71.57356000	28.42027000
174.49998982	0.00000000	71.19833000	28.42027000
174.69998980	0.00000000	71.15526000	28.42027000
174.89998979	0.00000000	71.15526000	28.42027000
175.09998978	0.00000000	71.15526000	28.42027000
175.29998977	0.00000000	71.15526000	28.42027000
175.49998976	0.00000000	71.15526000	28.42027000
175.69998975	0.00000000	71.15526000	28.42027000
175.89998973	0.00000000	71.15526000	28.42027000
176.09998972	0.00000000	71.15526000	28.42027000
176.29998971	0.00000000	71.15526000	28.42027000
176.49998970	0.00000000	71.19833000	28.42027000
176.69998969	0.00000000	71.53051000	28.42027000
176.89998967	0.00000000	71.89960000	28.42027000
177.09998966	0.00000000	71.53051000	28.42027000
177.29998965	0.00000000	71.19833000	28.37721000
177.49998964	0.00000000	71.15526000	28.04503000
177.69998963	0.00000000	71.15526000	27.67593000
177.89998961	0.00000000	71.15526000	28.04503000
178.09998960	0.00000000	71.15526000	28.37721000
178.29998959	0.00000000	71.15526000	28.42027000
178.49998958	0.00000000	71.15526000	28.42027000
178.69998957	0.00000000	71.15526000	28.42027000
178.89998956	0.00000000	71.15526000	28.42027000
179.09998954	0.00000000	71.19833000	28.42027000
179.29998953	0.00000000	71.53051000	28.42027000
179.49998952	0.00000000	71.89960000	28.42027000
179.69998951	0.00000000	71.53051000	28.42027000
179.89998950	0.00000000	71.19833000	28.42027000
180.09998948	0.00000000	71.15526000	28.42027000
180.29998947	0.00000000	71.15526000	28.42027000
180.49998946	0.00000000	71.15526000	28.42027000
180.69998945	0.00000000	71.15526000	28.42027000
180.89998944	0.00000000	71.15526000	28.42027000
181.09998942	0.00000000	71.15526000	28.42027000
181.29998941	0.00000000	71.15526000	28.42027000
181.49998940	0.00000000	71.15526000	28.42027000
181.69998939	0.00000000	71.15526000	28.46333000
181.89998938	0.00000000	71.15526000	28.79552000
182.09998937	0.00000000	71.15526000	29.16461000
182.29998935	0.00000000	71.19833000	28.83858000
182.49998934	0.00000000	71.53051000	28.79552000
182.69998933	0.00000000	71.94266000	28.78937000
182.89998932	0.00000000	71.90575000	28.05118000
183.09998931	0.00000000	71.94266000	28.08809000
183.29998929	0.00000000	71.53051000	28.37721000
183.49998928	0.00000000	71.19833000	28.42027000
183.69998927	0.00000000	71.15526000	28.42027000
183.89998926	0.00000000	71.19833000	28.46333000
184.09998925	0.00000000	71.53051000	28.83858000
184.29998923	0.00000000	71.89960000	29.58292000
184.49998922	0.00000000	71.53051000	29.95817000
184.69998921	0.00000000	71.19833000	30.00123000
184.89998920	0.00000000	71.15526000	30.00123000
185.09998919	0.00000000	71.19833000	30.00123000
185.29998918	0.00000000	71.57356000	30.00123000
185.49998916	0.00000000	72.31791000	29.95817000
185.69998915	0.00000000	72.69316000	29.58292000
185.89998914	0.00000000	72.73621000	28.83858000
186.09998913	0.00000000	72.69316000	28.46333000
186.29998912	0.00000000	72.31791000	28.42027000
186.49998910	0.00000000	71.57356000	28.42027000
186.69998909	0.00000000	71.19833000	28.42027000
186.89998908	0.00000000	71.15526000	28.42027000
187.09998907	0.00000000	71.15526000	28.46333000
187.29998906	0.00000000	71.15526000	28.83858000
187.49998904	0.00000000	71.15526000	29.58292000
187.69998903	0.00000000	71.15526000	29.95817000
187.89998902	0.00000000	71.15526000	29.95817000
188.09998901	0.00000000	71.15526000	29.62598000
188.29998900	0.00000000	71.19833000	29.21383000
188.49998899	0.00000000	71.57356000	29.20767000
188.69998897	0.00000000	72.26870000	28.75246000
188.89998896	0.00000000	72.26870000	28.04503000
189.09998895	0.00000000	71.57356000	27.25763000
189.29998894	0.00000000	71.19833000	26.88238000
189.49998893	0.00000000	71.15526000	26.88238000
189.69998891	0.00000000	71.15526000	27.25763000
189.89998890	0.00000000	71.15526000	28.00197000
190.09998889	0.00000000	71.15526000	28.37721000
190.29998888	0.00000000	71.15526000	28.42027000
190.49998887	0.00000000	71.15526000	28.42027000
190.69998885	0.00000000	71.15526000	28.42027000
190.89998884	0.00000000	71.15526000	28.42027000
191.09998883	0.00000000	71.15526000	28.42027000
191.29998882	0.00000000	71.15526000	28.42027000
191.49998881	0.00000000	71.15526000	28.42027000
191.69998880	0.00000000	71.15526000	28.42027000
191.89998878	0.00000000	71.15526000	28.42027000
192.09998877	0.00000000	71.15526000	28.42027000
192.29998876	0.00000000	71.15526000	28.37721000
192.49998875	0.00000000	71.15526000	28.04503000
192.69998874	0.00000000	71.15526000	27.67593000
192.89998872	0.00000000	71.15526000	28.04503000
193.09998871	0.00000000	71.15526000	28.37721000
193.29998870	0.00000000	71.15526000	28.42027000
193.49998869	0.00000000	71.15526000	28.42027000
193.69998868	0.00000000	71.15526000	28.42027000
193.89998866	0.00000000	71.15526000	28.42027000
194.09998865	0.00000000	71.15526000	28.42027000
194.29998864	0.00000000	71.15526000	28.42027000
194.49998863	0.00000000	71.15526000	28.42027000
194.69998862	0.00000000	71.15526000	28.42027000
194.89998861	0.00000000	71.15526000	28.42027000
195.09998859	0.00000000	71.15526000	28.42027000
195.29998858	0.00000000	71.15526000	28.42027000
195.49998857	0.00000000	71.15526000	28.42027000
195.69998856	0.00000000	71.15526000	28.42027000
195.89998855	0.00000000	71.15526000	28.42027000
196.09998853	0.00000000	71.15526000	28.42027000
