Time	Channel A	Channel B	Channel C
(us)	(V)	(mV)	(mV)

-4.49999956	0.00000000	63.24434000	14.62844000
-4.29999957	0.00000000	63.24434000	14.99139000
-4.09999958	0.00000000	63.20127000	14.95448000
-3.89999959	0.00000000	62.86909000	15.04060000
-3.69999960	0.00000000	62.50000000	15.00369000
-3.49999962	0.00000000	62.86909000	15.36663000
-3.29999963	0.00000000	63.20127000	15.32357000
-3.09999964	0.00000000	63.24434000	14.67150000
-2.89999965	0.00000000	63.24434000	14.62844000
-2.69999966	0.00000000	63.20127000	14.99139000
-2.49999968	0.00000000	62.82603000	14.95448000
-2.29999969	0.00000000	62.13090000	14.99139000
-2.09999970	0.00000000	62.13090000	14.58538000
-1.89999971	0.00000000	62.82603000	14.25320000
-1.69999972	0.00000000	63.20127000	14.25320000
-1.49999973	0.00000000	63.24434000	14.62844000
-1.29999975	0.00000000	63.20127000	15.32357000
-1.09999976	0.00000000	62.82603000	15.32357000
-0.89999977	0.00000000	62.13090000	14.62844000
-0.69999978	0.00000000	62.13090000	14.30241000
-0.49999979	0.00000000	62.82603000	14.58538000
-0.29999981	0.15871060	63.15207000	14.94833000
-0.09999982	0.63668800	62.86909000	14.58538000
0.10000017	0.95533960	62.50000000	14.25320000
0.30000016	1.11466500	62.86909000	14.21014000
0.50000015	0.95533960	63.20127000	14.21014000
0.70000013	0.47736220	63.20127000	14.21014000
0.90000012	-0.31803640	62.86909000	14.21014000
1.10000011	-1.27399100	62.50000000	14.25320000
1.30000010	-2.22994600	62.86909000	14.62844000
1.50000009	-2.70792300	63.20127000	15.36663000
1.70000008	-2.54859700	63.24434000	15.74188000
1.90000006	-1.59264300	63.24434000	15.78494000
2.10000005	0.15871060	63.24434000	15.78494000
2.30000004	2.22994600	63.20127000	15.74188000
2.50000003	4.14124000	62.86909000	15.36663000
2.70000002	5.25652100	62.45694000	14.62844000
2.90000000	5.09719500	62.45079000	14.25320000
3.09999999	3.34522600	62.03863000	14.21014000
3.29999998	0.47736220	61.75566000	14.21014000
3.49999997	-2.86724900	62.08169000	14.21014000
3.69999996	-5.89382400	62.82603000	14.25320000
3.89999994	-7.80511800	63.15207000	14.62844000
4.09999993	-7.64579200	62.86909000	15.36663000
4.29999992	-5.57517200	62.50000000	15.74188000
4.49999991	-1.91129400	62.86909000	15.78494000
4.69999990	2.38927200	63.15207000	15.74188000
4.89999989	6.53112700	62.86909000	15.40969000
5.09999987	9.07972400	62.45694000	15.00369000
5.29999986	9.23905000	62.45079000	14.99139000
5.49999985	7.16781500	62.03863000	14.58538000
5.69999984	3.34522600	61.66338000	14.21014000
5.89999983	-1.43331700	61.28814000	13.83489000
6.09999981	-5.89382400	60.96825000	13.46580000
6.29999980	-8.76107300	61.70644000	13.87795000
6.49999979	-9.39837600	62.77681000	14.58538000
6.69999978	-7.80511800	63.20127000	15.36663000
6.89999977	-4.30056600	63.24434000	15.74188000
7.09999975	0.15871060	63.24434000	15.78494000
7.29999974	4.30056600	63.24434000	15.78494000
7.49999973	6.84916400	63.20127000	15.78494000
7.69999972	7.80511800	62.86909000	15.74188000
7.89999971	6.69045300	62.45694000	15.36663000
8.09999970	3.98191400	62.45079000	14.67150000
8.29999968	0.63668800	62.03863000	14.62844000
8.49999967	-2.38927200	61.75566000	14.94833000
8.69999966	-4.45989200	62.08169000	14.58538000
8.89999965	-5.25652100	62.77681000	14.25320000
9.09999964	-4.61921700	62.82603000	14.21014000
9.29999962	-3.02657500	62.45694000	14.21014000
9.49999961	-1.11466500	62.45079000	14.21014000
9.69999960	0.79601380	62.08169000	14.21014000
9.89999959	2.07062000	62.08169000	14.21014000
10.09999958	2.54859700	62.40772000	14.21014000
10.29999956	2.22994600	62.03863000	14.21014000
10.49999955	1.59264300	61.70644000	14.21014000
10.69999954	0.79601380	61.66338000	14.21014000
10.89999953	-0.15871060	61.66338000	14.21014000
11.09999952	-0.63668800	61.66338000	14.21014000
11.29999951	-0.95533960	61.66338000	14.21014000
11.49999949	-0.95533960	61.66338000	14.21014000
11.69999948	-0.79601380	61.66338000	14.21014000
11.89999947	-0.47736220	61.66338000	14.21014000
12.09999946	-0.15871060	61.66338000	14.21014000
12.29999945	-0.15871060	61.66338000	14.21014000
12.49999943	-0.15871060	61.66338000	14.21014000
12.69999942	0.00000000	61.66338000	14.21014000
12.89999941	0.00000000	61.70644000	14.21014000
13.09999940	0.00000000	62.03863000	14.25320000
13.29999939	0.00000000	62.40772000	14.62844000
13.49999937	0.00000000	62.03863000	15.32357000
13.69999936	0.00000000	61.70644000	15.32357000
13.89999935	0.00000000	61.66338000	14.67150000
14.09999934	-0.15871060	61.66338000	14.62844000
14.29999933	-0.15871060	61.70644000	14.99139000
14.49999932	-0.15871060	62.03863000	15.00369000
14.69999930	-0.15871060	62.40772000	15.36663000
14.89999929	0.00000000	62.03863000	15.32357000
15.09999928	0.00000000	61.75566000	14.62844000
15.29999927	0.00000000	62.03863000	14.30241000
15.49999926	0.00000000	62.40772000	14.62844000
15.69999924	0.00000000	62.03863000	15.36663000
15.89999923	0.00000000	61.70644000	15.74188000
16.09999922	0.00000000	61.66338000	15.78494000
16.29999921	-0.15871060	61.70644000	15.78494000
16.49999920	-0.15871060	62.08169000	15.74188000
16.69999919	0.00000000	62.82603000	15.36663000
16.89999917	-0.15871060	63.20127000	14.62844000
17.09999916	0.00000000	63.28740000	14.25320000
17.29999915	0.00000000	63.66264000	14.21014000
17.49999914	0.00000000	64.35777000	14.21014000
17.69999913	0.00000000	64.35777000	14.21014000
17.89999911	0.00000000	63.61958000	14.21014000
18.09999910	0.00000000	62.82603000	14.21014000
18.29999909	0.00000000	61.62032000	14.21014000
18.49999908	0.00000000	60.08243000	14.21014000
18.69999907	0.00000000	58.54454000	14.21014000
18.89999905	0.00000000	57.38804000	14.21014000
19.09999904	0.00000000	57.05585000	14.21014000
19.29999903	0.00000000	57.84941000	14.21014000
19.49999902	0.00000000	60.21776000	14.21014000
19.69999901	0.00000000	63.66264000	14.21014000
19.89999900	0.00000000	67.57505000	14.21014000
20.09999898	0.00000000	71.01993000	14.21014000
20.29999897	0.00000000	73.29601000	14.21014000
20.49999896	0.00000000	73.20988000	14.21014000
20.69999895	0.00000000	70.09104000	14.21014000
20.89999894	0.00000000	64.22859000	14.25320000
21.09999892	0.00000000	56.54527000	14.58538000
21.29999891	0.00000000	48.83120000	14.94833000
21.49999890	0.00000000	43.42396000	14.58538000
21.69999889	0.00000000	41.14788000	14.25320000
21.89999888	0.00000000	43.23941000	14.21014000
22.09999886	0.00000000	50.63361000	14.21014000
22.29999885	0.00000000	62.21702000	14.21014000
22.49999884	0.00000000	75.34448000	14.21014000
22.69999883	0.00000000	86.88483000	14.21014000
22.89999882	0.00000000	93.76845000	14.21014000
23.09999881	0.00000000	93.67617000	14.21014000
23.29999879	0.00000000	85.90674000	14.25320000
23.49999878	0.00000000	71.62278000	14.67150000
23.69999877	0.00000000	54.22613000	15.78494000
23.89999876	0.00000000	37.56767000	16.85531000
24.09999875	0.00000000	24.86466000	16.85531000
24.29999873	0.00000000	19.55585000	15.78494000
24.49999872	0.00000000	23.92347000	14.62844000
24.69999871	0.00000000	37.84448000	13.79183000
24.89999870	0.00000000	58.67987000	12.58612000
25.09999869	0.00000000	81.06544000	11.09744000
25.29999867	0.00000000	100.00610000	9.93479300
25.49999866	0.00000000	111.12820000	9.60875900
25.69999865	0.00000000	111.07900000	10.40231000
25.89999864	0.00000000	99.53863000	12.76452000
26.09999863	0.00000000	79.39838000	16.20325000
26.29999862	0.00000000	55.05659000	20.10950000
26.49999860	0.00000000	31.51452000	23.54823000
26.69999859	0.00000000	14.94833000	25.82431000
26.89999858	0.00000000	9.13508800	25.77510000
27.09999857	0.00000000	15.32357000	23.03765000
27.29999856	0.00000000	32.30191000	17.97490000
27.49999854	0.00000000	55.80708000	11.00517000
27.69999853	0.00000000	80.18578000	3.66633800
27.89999852	0.00000000	99.87081000	-2.46678100
28.09999851	0.00000000	110.75290000	-5.85629900
28.29999850	0.00000000	110.42690000	-4.60752900
28.49999848	0.00000000	100.00610000	1.57480300
28.69999847	0.00000000	81.80979000	11.60187000
28.89999846	0.00000000	59.47957000	23.21604000
29.09999845	0.00000000	39.00713000	34.00591000
29.29999844	0.00000000	25.00000000	41.71383000
29.49999843	0.00000000	19.46973000	43.90379000
29.69999841	0.00000000	22.95152000	39.66535000
29.89999840	0.00000000	34.12278000	29.17692000
30.09999839	0.00000000	50.73204000	14.90526000
30.29999838	0.00000000	68.51008000	-0.55979330
30.49999837	0.00000000	83.67372000	-13.61343000
30.69999835	0.00000000	93.72539000	-20.95841000
30.89999834	0.00000000	96.46284000	-20.91535000
31.09999833	0.00000000	91.53543000	-13.19513000
31.29999832	0.00000000	81.15772000	0.73203740
31.49999831	0.00000000	67.94415000	17.74114000
31.69999829	0.00000000	54.40452000	34.74409000
31.89999828	0.00000000	43.14714000	47.80388000
32.09999827	0.00000000	36.54035000	53.65403000
32.29999826	0.00000000	35.33464000	51.33489000
32.49999825	0.00000000	39.60999000	41.66461000
32.69999824	0.00000000	48.45595000	26.19955000
32.89999822	0.00000000	59.62106000	8.44611200
33.09999821	0.00000000	70.09104000	-7.81250000
33.29999820	0.00000000	77.86047000	-19.42667000
33.49999819	0.00000000	81.76672000	-24.02805000
33.69999818	0.00000000	80.97932000	-20.58317000
33.89999816	0.00000000	75.99655000	-9.76254800
34.09999815	0.00000000	67.90108000	5.66560000
34.29999814	0.00000000	59.05511000	22.66855000
34.49999813	0.00000000	51.70398000	37.34621000
34.69999812	0.00000000	47.42864000	46.64124000
34.89999810	0.00000000	47.01033000	48.96038000
35.09999809	0.00000000	50.03691000	43.57775000
35.29999808	0.00000000	55.47490000	32.04970000
35.49999807	0.00000000	61.99557000	17.36589000
35.69999806	0.00000000	68.13484000	2.73129900
35.89999805	0.00000000	71.57972000	-8.45841400
36.09999803	0.00000000	71.67200000	-13.48425000
36.29999802	0.00000000	69.02066000	-11.66339000
36.49999801	0.00000000	64.78223000	-3.96161400
36.69999800	0.00000000	60.12549000	7.19734200
36.89999799	0.00000000	55.85014000	19.54970000
37.09999797	0.00000000	52.86663000	29.87205000
37.29999796	0.00000000	52.45448000	35.30389000
37.49999795	0.00000000	55.14271000	34.56570000
37.69999794	0.00000000	59.29502000	28.42643000
37.89999793	0.00000000	63.98867000	18.47933000
38.09999791	0.00000000	67.85802000	7.79404500
38.29999790	0.00000000	70.55856000	0.12918310
38.49999789	0.00000000	71.29675000	-2.60826800
38.69999788	0.00000000	69.39591000	0.08612204
38.89999787	0.00000000	65.94488000	7.33267600
39.09999786	0.00000000	61.66338000	16.85531000
39.29999784	0.00000000	57.38804000	25.31373000
39.49999783	0.00000000	53.93700000	30.33341000
39.69999782	0.00000000	51.99311000	31.07775000
39.89999781	0.00000000	52.35605000	26.80241000
40.09999780	0.00000000	54.26919000	18.39321000
40.29999778	0.00000000	57.43110000	8.44611200
40.49999777	0.00000000	61.66338000	0.04306102
40.69999776	0.00000000	65.89567000	-4.18922200
40.89999775	0.00000000	69.06373000	-3.07578700
41.09999774	0.00000000	70.97687000	2.68208600
41.29999772	0.00000000	71.33981000	11.51575000
41.49999771	0.00000000	69.43897000	21.13066000
41.69999770	0.00000000	66.36318000	28.80167000
41.89999769	0.00000000	62.82603000	32.70177000
42.09999768	0.00000000	58.91978000	31.91437000
42.29999767	0.00000000	55.47490000	26.93774000
42.49999765	0.00000000	53.14960000	18.85458000
42.69999764	0.00000000	52.77436000	10.07013000
42.89999763	0.00000000	54.26919000	3.10654500
43.09999762	0.00000000	56.96358000	-0.38139760
43.29999761	0.00000000	60.08243000	-0.04921259
43.49999759	0.00000000	63.15207000	3.75861200
43.69999758	0.00000000	65.47736000	9.47342500
43.89999757	0.00000000	66.31397000	15.32357000
44.09999756	0.00000000	66.36318000	20.34941000
44.29999755	0.00000000	65.98794000	23.82505000
44.49999753	0.00000000	65.20053000	24.57554000
44.69999752	0.00000000	64.45004000	22.75467000
44.89999751	0.00000000	63.66264000	19.27288000
45.09999750	0.00000000	63.24434000	15.45891000
45.29999749	0.00000000	62.82603000	11.93405000
45.49999748	0.00000000	61.99557000	9.60875900
45.69999746	0.00000000	60.77756000	8.44611200
45.89999745	0.00000000	58.40920000	8.82135800
46.09999744	0.00000000	55.43184000	10.67298000
46.29999743	0.00000000	53.10654000	12.62918000
46.49999742	0.00000000	52.35605000	14.62844000
46.69999740	0.00000000	53.19881000	16.90453000
46.89999739	0.00000000	56.36073000	18.39321000
47.09999738	0.00000000	61.75566000	18.47933000
47.29999737	0.00000000	67.90108000	17.69808000
47.49999736	0.00000000	73.29601000	16.52928000
47.69999734	0.00000000	76.37180000	14.53617000
47.89999733	0.00000000	76.32258000	12.25394000
48.09999732	0.00000000	72.78542000	9.98400600
48.29999731	0.00000000	65.85260000	8.86441900
48.49999730	0.00000000	57.38804000	9.55954600
48.69999729	0.00000000	49.66166000	11.09744000
48.89999727	0.00000000	44.26673000	13.09055000
49.09999726	0.00000000	42.77190000	15.78494000
49.29999725	0.00000000	45.84769000	18.47933000
49.49999724	0.00000000	52.77436000	20.39247000
49.69999723	0.00000000	61.66338000	21.13066000
49.89999721	0.00000000	70.55241000	19.97416000
50.09999720	0.00000000	77.48523000	17.27977000
50.29999719	0.00000000	80.56102000	13.79183000
50.49999718	0.00000000	79.02312000	9.93479300
50.69999717	0.00000000	73.20374000	6.91437000
50.89999715	0.00000000	64.36392000	5.70866100
51.09999714	0.00000000	54.77977000	6.48991100
51.29999713	0.00000000	47.47170000	8.82135800
51.49999712	0.00000000	44.35285000	12.72146000
51.69999711	0.00000000	45.84769000	17.27362000
51.89999710	0.00000000	51.24261000	21.13066000
52.09999708	0.00000000	58.91978000	23.08686000
52.29999707	0.00000000	67.01525000	23.12992000
52.49999706	0.00000000	73.16068000	21.54897000
52.69999705	0.00000000	75.86122000	18.43627000
52.89999704	0.00000000	74.32332000	14.21014000
53.09999702	0.00000000	68.97145000	10.02707000
53.29999701	0.00000000	61.71259000	7.33267600
53.49999700	0.00000000	54.77977000	6.90821800
53.69999699	0.00000000	50.17224000	8.40305000
53.89999698	0.00000000	48.96653000	11.09744000
54.09999696	0.00000000	51.28568000	14.11786000
54.29999695	0.00000000	56.26845000	16.48622000
54.49999694	0.00000000	62.78297000	17.64887000
54.69999693	0.00000000	68.51008000	18.06102000
54.89999692	0.00000000	71.62893000	17.23056000
55.09999691	0.00000000	71.67200000	15.36663000
55.29999689	0.00000000	68.97145000	13.13976000
55.49999688	0.00000000	64.36392000	11.97711000
55.69999687	0.00000000	58.96899000	12.34621000
55.89999686	0.00000000	54.35531000	13.46580000
56.09999685	0.00000000	51.66092000	15.40969000
56.29999683	0.00000000	51.66092000	17.27362000
56.49999682	0.00000000	54.31225000	18.39321000
56.69999681	0.00000000	58.54454000	17.97490000
56.89999680	0.00000000	63.15822000	15.69882000
57.09999679	0.00000000	67.01525000	12.62918000
57.29999677	0.00000000	68.97761000	9.51648500
57.49999676	0.00000000	68.97761000	6.91437000
57.69999675	0.00000000	67.06447000	6.17002900
57.89999674	0.00000000	63.61958000	8.11392700
58.09999673	0.00000000	60.17470000	11.93405000
58.29999672	0.00000000	57.43110000	16.99065000
58.49999670	0.00000000	55.89320000	21.92421000
58.69999669	0.00000000	55.85014000	25.39985000
58.89999668	0.00000000	57.01279000	26.15034000
59.09999667	0.00000000	58.91978000	24.20029000
59.29999666	0.00000000	61.24508000	19.50664000
59.49999664	0.00000000	63.15207000	12.62918000
59.69999663	0.00000000	64.35777000	5.75172200
59.89999662	0.00000000	64.68996000	1.10728300
60.09999661	0.00000000	63.98867000	-0.42445860
60.29999660	0.00000000	62.45694000	1.52559000
60.49999658	0.00000000	61.33120000	6.91437000
60.69999657	0.00000000	60.50073000	14.21014000
60.89999656	0.00000000	60.17470000	21.54897000
61.09999655	0.00000000	60.50073000	27.31299000
61.29999654	0.00000000	61.28814000	30.00738000
61.49999653	0.00000000	61.99557000	28.80167000
61.69999651	0.00000000	62.40772000	23.82505000
61.89999650	0.00000000	61.99557000	16.11712000
62.09999649	0.00000000	61.28814000	8.07086500
62.29999648	0.00000000	60.45767000	1.48253000
62.49999647	0.00000000	59.70718000	-1.95620100
62.69999645	0.00000000	58.91978000	-1.58710600
62.89999644	0.00000000	58.59375000	2.63902500
63.09999643	0.00000000	58.96899000	9.55954600
63.29999642	0.00000000	60.12549000	17.27977000
63.49999641	0.00000000	61.66338000	24.24335000
63.69999639	0.00000000	63.20127000	28.84473000
63.89999638	0.00000000	64.35777000	30.05044000
64.09999637	0.00000000	64.73302000	27.73130000
64.29999636	0.00000000	64.31471000	22.75467000
64.49999635	0.00000000	62.77681000	16.16018000
64.69999634	0.00000000	60.50073000	9.60875900
64.89999632	0.00000000	58.59375000	4.17691900
65.09999631	0.00000000	57.43110000	1.10728300
65.29999630	0.00000000	57.43110000	1.06422200
65.49999629	0.00000000	58.54454000	3.70939900
65.69999628	0.00000000	60.08243000	7.98474400
65.89999626	0.00000000	61.62032000	13.00443000
66.09999625	0.00000000	62.77681000	18.01796000
66.29999624	0.00000000	63.15207000	21.50590000
66.49999623	0.00000000	62.82603000	23.17298000
66.69999622	0.00000000	61.99557000	23.54823000
66.89999620	0.00000000	60.82677000	22.75467000
67.09999619	0.00000000	58.91978000	20.43553000
67.29999618	0.00000000	57.51722000	17.36589000
67.49999617	0.00000000	57.84941000	14.25320000
67.69999616	0.00000000	59.75024000	11.42347000
67.89999615	0.00000000	62.03863000	8.72293300
68.09999613	0.00000000	64.40699000	6.04084600
68.29999612	0.00000000	66.27091000	4.91510800
68.49999611	0.00000000	67.01525000	5.24729300
68.69999610	0.00000000	65.80955000	6.86515700
68.89999609	0.00000000	62.73376000	9.98400600
69.09999607	0.00000000	58.54454000	14.21014000
69.29999606	0.00000000	54.68750000	18.47933000
69.49999605	0.00000000	52.35605000	22.01649000
69.69999604	0.00000000	51.61786000	24.71087000
69.89999603	0.00000000	53.19881000	25.78125000
70.09999601	0.00000000	57.01279000	24.24335000
70.29999600	0.00000000	61.66338000	20.39247000
70.49999599	0.00000000	66.36318000	15.36663000
70.69999598	0.00000000	70.55241000	9.93479300
70.89999597	0.00000000	72.83464000	5.33341500
71.09999596	0.00000000	72.04723000	2.63902500
71.29999594	0.00000000	68.64542000	2.63902500
71.49999593	0.00000000	63.57652000	5.29035400
71.69999592	0.00000000	58.12622000	9.51648500
71.89999591	0.00000000	52.73130000	14.21014000
72.09999590	0.00000000	48.91732000	18.81152000
72.29999588	0.00000000	48.16683000	22.24409000
72.49999587	0.00000000	50.41215000	23.03765000
72.69999586	0.00000000	55.05659000	21.59203000
72.89999585	0.00000000	60.45767000	18.89764000
73.09999584	0.00000000	65.94488000	15.83415000
73.29999582	0.00000000	70.50935000	13.09055000
73.49999581	0.00000000	72.83464000	11.18356000
73.69999580	0.00000000	72.09030000	10.35310000
73.89999579	0.00000000	69.02066000	10.76525000
74.09999578	0.00000000	64.36392000	11.84178000
74.29999577	0.00000000	59.01205000	13.37352000
74.49999575	0.00000000	54.73056000	14.11786000
74.69999574	0.00000000	52.35605000	14.16708000
74.89999573	0.00000000	51.61786000	13.74262000
75.09999572	0.00000000	53.14960000	12.62918000
75.29999571	0.00000000	56.54527000	11.55881000
75.49999569	0.00000000	60.03937000	11.55881000
75.69999568	0.00000000	63.15207000	12.72146000
75.89999567	0.00000000	65.47736000	14.67150000
76.09999566	0.00000000	66.27091000	17.36589000
76.29999565	0.00000000	65.93873000	20.01722000
76.49999563	0.00000000	64.78223000	21.54897000
76.69999562	0.00000000	63.24434000	21.50590000
76.89999561	0.00000000	61.70644000	19.54970000
77.09999560	0.00000000	60.54995000	15.69882000
77.29999559	0.00000000	60.12549000	11.04823000
77.49999558	0.00000000	60.08243000	6.44685000
77.69999556	0.00000000	60.08243000	3.01427100
77.89999555	0.00000000	60.08243000	2.26377900
78.09999554	0.00000000	60.03937000	4.17076700
78.29999553	0.00000000	59.66412000	8.44611200
78.49999552	0.00000000	58.91978000	14.21014000
78.69999550	0.00000000	58.54454000	19.97416000
78.89999549	0.00000000	58.54454000	24.20029000
79.09999548	0.00000000	59.01205000	25.78125000
79.29999547	0.00000000	60.54995000	24.66166000
79.49999546	0.00000000	62.82603000	21.54897000
79.69999544	0.00000000	64.73302000	16.89837000
79.89999543	0.00000000	65.89567000	11.51575000
80.09999542	0.00000000	65.85260000	6.90821800
80.29999541	0.00000000	64.31471000	4.17076700
80.49999540	0.00000000	61.66338000	3.75246000
80.69999539	0.00000000	58.96899000	5.24729300
80.89999537	0.00000000	57.01279000	7.98474400
81.09999536	0.00000000	55.85014000	11.46653000
81.29999535	0.00000000	55.85014000	15.36663000
81.49999534	0.00000000	57.01279000	18.85458000
81.69999533	0.00000000	58.96899000	21.64124000
81.89999531	0.00000000	61.66338000	23.46210000
82.09999530	0.00000000	64.31471000	23.49901000
82.29999529	0.00000000	65.85260000	21.22908000
82.49999528	0.00000000	65.89567000	18.57160000
82.69999527	0.00000000	64.73302000	15.74188000
82.89999525	0.00000000	62.82603000	12.67224000
83.09999524	0.00000000	60.50073000	9.89173200
83.29999523	0.00000000	58.59375000	7.60949800
83.49999522	0.00000000	57.43110000	6.08390700
83.69999521	0.00000000	57.43110000	6.48991100
83.89999520	0.00000000	58.50147000	8.35383800
84.09999518	0.00000000	59.66412000	11.09744000
84.29999517	0.00000000	60.45767000	14.21014000
84.49999516	0.00000000	61.24508000	17.36589000
84.69999515	0.00000000	61.62032000	20.43553000
84.89999514	0.00000000	61.66338000	22.71161000
85.09999512	0.00000000	61.66338000	23.08686000
85.29999511	0.00000000	61.66338000	21.54897000
85.49999510	0.00000000	61.66338000	18.43627000
85.69999509	0.00000000	61.70644000	14.16708000
85.89999508	0.00000000	62.03863000	9.56569900
86.09999506	0.00000000	62.40772000	5.70866100
86.29999505	0.00000000	61.99557000	3.80167300
86.49999504	0.00000000	61.24508000	4.17076700
86.69999503	0.00000000	60.03937000	6.86515700
86.89999502	0.00000000	58.54454000	11.09129000
87.09999501	0.00000000	57.38804000	15.74188000
87.29999499	0.00000000	57.01279000	19.97416000
87.49999498	0.00000000	57.38804000	22.66855000
87.69999497	0.00000000	58.54454000	23.08686000
87.89999496	0.00000000	60.08243000	21.50590000
88.09999495	0.00000000	61.66338000	18.01796000
88.29999493	0.00000000	63.20127000	13.04749000
88.49999492	0.00000000	64.31471000	8.44611200
88.69999491	0.00000000	64.31471000	5.33341500
88.89999490	0.00000000	63.20127000	4.21998000
89.09999489	0.00000000	61.66338000	5.75172200
89.29999487	0.00000000	60.08243000	9.56569900
89.49999486	0.00000000	58.54454000	14.21014000
89.69999485	0.00000000	57.43110000	18.81152000
89.89999484	0.00000000	57.38804000	22.24409000
90.09999483	0.00000000	58.12622000	23.03765000
90.29999482	0.00000000	58.91978000	21.50590000
90.49999480	0.00000000	60.08243000	18.01796000
90.69999479	0.00000000	61.19586000	13.04749000
90.89999478	0.00000000	61.62032000	8.44611200
91.09999477	0.00000000	61.66338000	5.37647600
91.29999476	0.00000000	61.66338000	4.59522600
91.49999474	0.00000000	61.62032000	6.53912400
91.69999473	0.00000000	61.24508000	10.35310000
91.89999472	0.00000000	60.54995000	15.36663000
92.09999471	0.00000000	60.50073000	19.92495000
92.29999470	0.00000000	60.86983000	22.66855000
92.49999468	0.00000000	60.83292000	23.03765000
92.69999467	0.00000000	60.86983000	21.08760000
92.89999466	0.00000000	60.41461000	16.85531000
93.09999465	0.00000000	59.66412000	11.55881000
93.29999464	0.00000000	58.50147000	7.33267600
93.49999463	0.00000000	57.43110000	5.37647600
93.69999461	0.00000000	57.43110000	5.75172200
93.89999460	0.00000000	58.54454000	8.44611200
94.09999459	0.00000000	60.08243000	12.67224000
94.29999458	0.00000000	61.66338000	17.23056000
94.49999457	0.00000000	63.24434000	20.71235000
94.69999455	0.00000000	64.78223000	21.88115000
94.89999454	0.00000000	65.89567000	21.13066000
95.09999453	0.00000000	65.85260000	18.43627000
95.29999452	0.00000000	64.31471000	14.62844000
95.49999451	0.00000000	61.62032000	11.14050000
95.69999449	0.00000000	58.54454000	8.44611200
95.89999448	0.00000000	55.80708000	7.28346400
96.09999447	0.00000000	53.89394000	8.07086500
96.29999446	0.00000000	53.14960000	10.35310000
96.49999445	0.00000000	54.31225000	13.79183000
96.69999444	0.00000000	57.05585000	16.81225000
96.89999442	0.00000000	60.87598000	18.43627000
97.09999441	0.00000000	65.10211000	18.85458000
97.29999440	0.00000000	67.81496000	18.43627000
97.49999439	0.00000000	69.06373000	16.90453000
97.69999438	0.00000000	68.97761000	14.58538000
97.89999436	0.00000000	67.01525000	12.30315000
98.09999435	0.00000000	63.20127000	10.40231000
98.29999434	0.00000000	58.96899000	9.98400600
98.49999433	0.00000000	55.43184000	10.67298000
98.69999432	0.00000000	52.73130000	11.46653000
98.89999430	0.00000000	51.61786000	12.67224000
99.09999429	0.00000000	52.73130000	14.11786000
99.29999428	0.00000000	55.43184000	14.90526000
99.49999427	0.00000000	58.91978000	14.58538000
99.69999426	0.00000000	62.77681000	14.30241000
99.89999425	0.00000000	65.85260000	14.62844000
100.09999423	0.00000000	67.48277000	15.36663000
100.29999422	0.00000000	67.85802000	15.78494000
100.49999421	0.00000000	67.06447000	16.16018000
100.69999420	0.00000000	64.73917000	16.52928000
100.89999419	0.00000000	61.66338000	16.06791000
101.09999417	0.00000000	58.54454000	14.94833000
101.29999416	0.00000000	55.85014000	13.00443000
101.49999415	0.00000000	54.26919000	11.14050000
101.69999414	0.00000000	53.89394000	9.93479300
101.89999413	0.00000000	54.64444000	9.56569900
102.09999411	0.00000000	56.58833000	9.98400600
102.29999410	0.00000000	58.87672000	11.51575000
102.49999409	0.00000000	61.24508000	13.83489000
102.69999408	0.00000000	63.20127000	16.16018000
102.89999407	0.00000000	64.73302000	18.47933000
103.09999406	0.00000000	65.47736000	19.97416000
103.29999404	0.00000000	64.73302000	19.97416000
103.49999403	0.00000000	63.20127000	18.39321000
103.69999402	0.00000000	61.24508000	15.36663000
103.89999401	0.00000000	58.96899000	11.93405000
104.09999400	0.00000000	57.38804000	9.60875900
104.29999398	0.00000000	56.58833000	8.35998900
104.49999397	0.00000000	56.17618000	8.02780400
104.69999396	0.00000000	56.63754000	8.86441900
104.89999395	0.00000000	57.75713000	11.51575000
105.09999394	0.00000000	59.70718000	14.90526000
105.29999392	0.00000000	61.57111000	17.27362000
105.49999391	0.00000000	62.77681000	18.85458000
105.69999390	0.00000000	63.15207000	19.55585000
105.89999389	0.00000000	62.77681000	18.39321000
106.09999388	0.00000000	61.66338000	15.78494000
106.29999387	0.00000000	60.50073000	13.09055000
106.49999385	0.00000000	59.70718000	11.14050000
106.69999384	0.00000000	58.91978000	9.98400600
106.89999383	0.00000000	58.59375000	9.98400600
107.09999382	0.00000000	58.96899000	11.14050000
107.29999381	0.00000000	60.08243000	13.00443000
107.49999379	0.00000000	61.19586000	14.94833000
107.69999378	0.00000000	61.62032000	16.11712000
107.89999377	0.00000000	61.62032000	16.89837000
108.09999376	0.00000000	61.24508000	16.85531000
108.29999375	0.00000000	60.45767000	15.69882000
108.49999374	0.00000000	59.70718000	13.83489000
108.69999372	0.00000000	58.91978000	11.93405000
108.89999371	0.00000000	58.54454000	11.14050000
109.09999370	0.00000000	58.54454000	11.09129000
109.29999369	0.00000000	58.91978000	11.51575000
109.49999368	0.00000000	59.70718000	12.67224000
109.69999366	0.00000000	60.50073000	14.21014000
109.89999365	0.00000000	61.66338000	15.74188000
110.09999364	0.00000000	62.73376000	16.89837000
110.29999363	0.00000000	62.77681000	17.27362000
110.49999362	0.00000000	62.03863000	16.85531000
110.69999360	0.00000000	61.24508000	15.32357000
110.89999359	0.00000000	60.08243000	13.09055000
111.09999358	0.00000000	58.96899000	11.55881000
111.29999357	0.00000000	58.54454000	11.09129000
111.49999356	0.00000000	58.50147000	11.04823000
111.69999355	0.00000000	58.54454000	11.09129000
111.89999353	0.00000000	58.91978000	11.51575000
112.09999352	0.00000000	59.70718000	12.67224000
112.29999351	0.00000000	60.45767000	14.16092000
112.49999350	0.00000000	61.19586000	15.32357000
112.69999349	0.00000000	61.19586000	15.69267000
112.89999347	0.00000000	60.50073000	15.36663000
113.09999346	0.00000000	60.12549000	14.62844000
113.29999345	0.00000000	60.08243000	14.25320000
113.49999344	0.00000000	60.08243000	14.16708000
113.69999343	0.00000000	60.08243000	13.83489000
113.89999341	0.00000000	60.08243000	13.42274000
114.09999340	0.00000000	60.08243000	13.41658000
114.29999339	0.00000000	60.08243000	13.00443000
114.49999338	0.00000000	60.08243000	12.67224000
114.69999337	0.00000000	60.08243000	12.62918000
114.89999336	0.00000000	60.08243000	12.62918000
115.09999334	0.00000000	60.08243000	12.62918000
115.29999333	0.00000000	60.08243000	12.62918000
115.49999332	0.00000000	60.08243000	12.67224000
115.69999331	0.00000000	60.08243000	13.04749000
115.89999330	0.00000000	60.08243000	13.83489000
116.09999328	0.00000000	60.08243000	14.58538000
116.29999327	0.00000000	60.08243000	15.36663000
116.49999326	0.00000000	60.03937000	15.74188000
116.69999325	0.00000000	59.70718000	15.78494000
116.89999324	0.00000000	59.33809000	15.74188000
117.09999322	0.00000000	59.70718000	15.32357000
117.29999321	0.00000000	60.08243000	14.21014000
117.49999320	0.00000000	60.50073000	13.04749000
117.69999319	0.00000000	61.24508000	12.25394000
117.89999318	0.00000000	61.62032000	11.51575000
118.09999317	0.00000000	61.66338000	11.51575000
118.29999315	0.00000000	61.62032000	12.21087000
118.49999314	0.00000000	61.24508000	12.62918000
118.69999313	0.00000000	60.45767000	13.09670000
118.89999312	0.00000000	59.66412000	14.21014000
119.09999311	0.00000000	58.50147000	15.32357000
119.29999309	0.00000000	57.38804000	15.74188000
119.49999308	0.00000000	57.01279000	15.78494000
119.69999307	0.00000000	57.38804000	15.74188000
119.89999306	0.00000000	58.54454000	15.36663000
120.09999305	0.00000000	60.03937000	14.62844000
120.29999303	0.00000000	61.24508000	14.21014000
120.49999302	0.00000000	62.03863000	13.79183000
120.69999301	0.00000000	62.82603000	13.04749000
120.89999300	0.00000000	63.15207000	12.67224000
121.09999299	0.00000000	62.77681000	12.62918000
121.29999298	0.00000000	61.62032000	12.62918000
121.49999296	0.00000000	60.08243000	12.62918000
121.69999295	0.00000000	58.54454000	12.67224000
121.89999294	0.00000000	57.38804000	13.04749000
122.09999293	0.00000000	56.96358000	13.79183000
122.29999292	0.00000000	56.96358000	14.16708000
122.49999290	0.00000000	57.38804000	14.25320000
122.69999289	0.00000000	58.50147000	14.62844000
122.89999288	0.00000000	59.66412000	15.32357000
123.09999287	0.00000000	60.45767000	15.32357000
123.29999286	0.00000000	61.24508000	14.62844000
123.49999284	0.00000000	61.62032000	14.21014000
123.69999283	0.00000000	61.66338000	13.79183000
123.89999282	0.00000000	61.66338000	13.04749000
124.09999281	0.00000000	61.57111000	12.67224000
124.29999280	0.00000000	60.86983000	12.62918000
124.49999279	0.00000000	59.71333000	12.62918000
124.69999277	0.00000000	59.28888000	12.62918000
124.89999276	0.00000000	58.45841000	12.67224000
125.09999275	0.00000000	57.43110000	13.04749000
125.29999274	0.00000000	57.38804000	13.79183000
125.49999273	0.00000000	58.08316000	14.16708000
125.69999271	0.00000000	58.50147000	14.25320000
125.89999270	0.00000000	58.96899000	14.62844000
126.09999269	0.00000000	60.08243000	15.32357000
126.29999268	0.00000000	61.19586000	15.32357000
126.49999267	0.00000000	61.62032000	14.62844000
126.69999265	0.00000000	61.66338000	14.21014000
126.89999264	0.00000000	61.62032000	13.79183000
127.09999263	0.00000000	61.19586000	13.00443000
127.29999262	0.00000000	60.03937000	12.29700000
127.49999261	0.00000000	58.54454000	11.88484000
127.69999260	0.00000000	57.38804000	12.25394000
127.89999258	0.00000000	56.96358000	12.58612000
128.09999257	0.00000000	56.96358000	12.67224000
128.29999256	0.00000000	57.38804000	13.04749000
128.49999255	0.00000000	58.54454000	13.79183000
128.69999254	0.00000000	60.03937000	14.16708000
128.89999252	0.00000000	61.19586000	14.21014000
129.09999251	0.00000000	61.57111000	14.16708000
129.29999250	0.00000000	61.24508000	13.79183000
129.49999249	0.00000000	60.50073000	13.04749000
129.69999248	0.00000000	60.08243000	12.67224000
129.89999246	0.00000000	59.66412000	12.62918000
130.09999245	0.00000000	58.87672000	12.67224000
130.29999244	0.00000000	58.16929000	13.04749000
130.49999243	0.00000000	57.75713000	13.79183000
130.69999242	0.00000000	58.16929000	14.16708000
130.89999241	0.00000000	58.87672000	14.21014000
131.09999239	0.00000000	59.70718000	14.21014000
131.29999238	0.00000000	60.45767000	14.21014000
131.49999237	0.00000000	61.24508000	14.21014000
131.69999236	0.00000000	61.57111000	14.16708000
131.89999235	0.00000000	61.24508000	13.79183000
132.09999233	0.00000000	60.45767000	13.04749000
132.29999232	0.00000000	59.70718000	12.67224000
132.49999231	0.00000000	58.91978000	12.62918000
132.69999230	0.00000000	58.54454000	12.67224000
132.89999229	0.00000000	58.54454000	13.09670000
133.09999227	0.00000000	58.91978000	14.21014000
133.29999226	0.00000000	59.61491000	15.32357000
133.49999225	0.00000000	59.66412000	15.74188000
133.69999224	0.00000000	59.33809000	15.78494000
133.89999223	0.00000000	59.70718000	15.78494000
134.09999222	0.00000000	60.03937000	15.74188000
134.29999220	0.00000000	60.08243000	15.32357000
134.49999219	0.00000000	60.08243000	14.21014000
134.69999218	0.00000000	60.08243000	13.09670000
134.89999217	0.00000000	60.08243000	12.67224000
135.09999216	0.00000000	60.08243000	12.62918000
135.29999214	0.00000000	60.08243000	12.62918000
135.49999213	0.00000000	60.08243000	12.67224000
135.69999212	0.00000000	60.08243000	13.04749000
135.89999211	0.00000000	60.03937000	13.79183000
136.09999210	0.00000000	59.66412000	14.21014000
136.29999208	0.00000000	58.87672000	14.62844000
136.49999207	0.00000000	58.16929000	15.32357000
136.69999206	0.00000000	57.75713000	15.32357000
136.89999205	0.00000000	58.12622000	14.62844000
137.09999204	0.00000000	58.50147000	14.21014000
137.29999203	0.00000000	58.91978000	13.79183000
137.49999201	0.00000000	59.70718000	13.04749000
137.69999200	0.00000000	60.45767000	12.62918000
137.89999199	0.00000000	61.19586000	12.21087000
138.09999198	0.00000000	61.19586000	11.51575000
138.29999197	0.00000000	60.45767000	11.51575000
138.49999195	0.00000000	59.70718000	12.21087000
138.69999194	0.00000000	58.91978000	12.62918000
138.89999193	0.00000000	58.54454000	13.04749000
139.09999192	0.00000000	58.50147000	13.79183000
139.29999191	0.00000000	58.50147000	14.16708000
139.49999189	0.00000000	58.54454000	14.21014000
139.69999188	0.00000000	58.91978000	14.21014000
139.89999187	0.00000000	59.66412000	14.21014000
140.09999186	0.00000000	60.03937000	14.16708000
140.29999185	0.00000000	60.08243000	13.79183000
140.49999184	0.00000000	60.08243000	13.04749000
140.69999182	0.00000000	60.03937000	12.62918000
140.89999181	0.00000000	59.66412000	12.21087000
141.09999180	0.00000000	58.91978000	11.51575000
141.29999179	0.00000000	58.54454000	11.51575000
141.49999178	0.00000000	58.50147000	12.25394000
141.69999176	0.00000000	58.50147000	13.00443000
141.89999175	0.00000000	58.54454000	13.83489000
142.09999174	0.00000000	58.91978000	14.58538000
142.29999173	0.00000000	59.61491000	15.36663000
142.49999172	0.00000000	59.66412000	15.69267000
142.69999170	0.00000000	59.33809000	15.36663000
142.89999169	0.00000000	59.70718000	14.58538000
143.09999168	0.00000000	59.99015000	13.79183000
143.29999167	0.00000000	59.66412000	12.67224000
143.49999166	0.00000000	58.91978000	11.88484000
143.69999165	0.00000000	58.54454000	11.87869000
143.89999163	0.00000000	58.54454000	11.84178000
144.09999162	0.00000000	58.91978000	12.29700000
144.29999161	0.00000000	59.66412000	13.00443000
144.49999160	0.00000000	60.03937000	13.83489000
144.69999159	0.00000000	60.08243000	14.58538000
144.89999157	0.00000000	60.08243000	15.36663000
145.09999156	0.00000000	60.08243000	15.69267000
145.29999155	0.00000000	60.08243000	15.36663000
145.49999154	0.00000000	60.03937000	14.62844000
145.69999153	0.00000000	59.66412000	14.21014000
145.89999151	0.00000000	58.91978000	13.79183000
146.09999150	0.00000000	58.54454000	13.04749000
146.29999149	0.00000000	58.50147000	12.67224000
146.49999148	0.00000000	58.50147000	12.62918000
146.69999147	0.00000000	58.54454000	12.62918000
146.89999146	0.00000000	58.91978000	12.67224000
147.09999144	0.00000000	59.66412000	13.04749000
147.29999143	0.00000000	60.03937000	13.79183000
147.49999142	0.00000000	60.08243000	14.16708000
147.69999141	0.00000000	60.03937000	14.21014000
147.89999140	0.00000000	59.66412000	14.21014000
148.09999138	0.00000000	58.91978000	14.21014000
148.29999137	0.00000000	58.54454000	14.16708000
148.49999136	0.00000000	58.50147000	13.79183000
148.69999135	0.00000000	58.50147000	13.04749000
148.89999134	0.00000000	58.50147000	12.67224000
149.09999132	0.00000000	58.54454000	12.62918000
149.29999131	0.00000000	58.91978000	12.62918000
149.49999130	0.00000000	59.66412000	12.62918000
149.69999129	0.00000000	60.03937000	12.62918000
149.89999128	0.00000000	60.08243000	12.67224000
150.09999127	0.00000000	60.08243000	13.04749000
150.29999125	0.00000000	60.08243000	13.79183000
150.49999124	0.00000000	60.08243000	14.16708000
150.69999123	0.00000000	60.03937000	14.21014000
150.89999122	0.00000000	59.66412000	14.21014000
151.09999121	0.00000000	58.91978000	14.21014000
151.29999119	0.00000000	58.54454000	14.16708000
151.49999118	0.00000000	58.50147000	13.79183000
151.69999117	0.00000000	58.50147000	13.04749000
151.89999116	0.00000000	58.50147000	12.67224000
152.09999115	0.00000000	58.54454000	12.62918000
152.29999113	0.00000000	58.91978000	12.62918000
152.49999112	0.00000000	59.66412000	12.62918000
152.69999111	0.00000000	60.03937000	12.67224000
152.89999110	0.00000000	60.08243000	13.04749000
153.09999109	0.00000000	60.08243000	13.79183000
153.29999108	0.00000000	60.08243000	14.16708000
153.49999106	0.00000000	60.03937000	14.21014000
153.69999105	0.00000000	59.66412000	14.21014000
153.89999104	0.00000000	58.91978000	14.21014000
154.09999103	0.00000000	58.54454000	14.21014000
154.29999102	0.00000000	58.50147000	14.21014000
154.49999100	0.00000000	58.50147000	14.21014000
154.69999099	0.00000000	58.50147000	14.16708000
154.89999098	0.00000000	58.54454000	13.79183000
155.09999097	0.00000000	58.91978000	13.04749000
155.29999096	0.00000000	59.66412000	12.67224000
155.49999094	0.00000000	60.03937000	12.62918000
155.69999093	0.00000000	60.08243000	12.62918000
155.89999092	0.00000000	60.08243000	12.62918000
156.09999091	0.00000000	60.03937000	12.67224000
156.29999090	0.00000000	59.66412000	13.04749000
156.49999089	0.00000000	58.91978000	13.79183000
156.69999087	0.00000000	58.54454000	14.16708000
156.89999086	0.00000000	58.50147000	14.21014000
157.09999085	0.00000000	58.50147000	14.21014000
157.29999084	0.00000000	58.45841000	14.16708000
157.49999083	0.00000000	58.12622000	13.83489000
157.69999081	0.00000000	57.80634000	13.46580000
157.89999080	0.00000000	58.54454000	13.79183000
158.09999079	0.00000000	59.57185000	13.74262000
158.29999078	0.00000000	59.66412000	13.04749000
158.49999077	0.00000000	59.33809000	12.62918000
158.69999075	0.00000000	59.70718000	12.25394000
158.89999074	0.00000000	60.03937000	11.93405000
159.09999073	0.00000000	60.08243000	12.67224000
159.29999072	0.00000000	60.03937000	13.74262000
159.49999071	0.00000000	59.66412000	14.16708000
159.69999070	0.00000000	58.91978000	14.21014000
159.89999068	0.00000000	58.54454000	14.21014000
160.09999067	0.00000000	58.50147000	14.21014000
160.29999066	0.00000000	58.50147000	14.21014000
160.49999065	0.00000000	58.50147000	14.21014000
160.69999064	0.00000000	58.50147000	14.16708000
160.89999062	0.00000000	58.50147000	13.79183000
161.09999061	0.00000000	58.54454000	13.04749000
161.29999060	0.00000000	58.87672000	12.67224000
161.49999059	0.00000000	59.28888000	12.62918000
161.69999058	0.00000000	59.29502000	12.62918000
161.89999056	0.00000000	59.70718000	12.67224000
162.09999055	0.00000000	60.03937000	13.04749000
162.29999054	0.00000000	60.08243000	13.79183000
162.49999053	0.00000000	60.03937000	14.16708000
162.69999052	0.00000000	59.66412000	14.21014000
162.89999051	0.00000000	58.91978000	14.21014000
163.09999049	0.00000000	58.54454000	14.21014000
163.29999048	0.00000000	58.50147000	14.21014000
163.49999047	0.00000000	58.50147000	14.16708000
163.69999046	0.00000000	58.50147000	13.79183000
163.89999045	0.00000000	58.50147000	13.04749000
164.09999043	0.00000000	58.50147000	12.67224000
164.29999042	0.00000000	58.50147000	12.62918000
164.49999041	0.00000000	58.54454000	12.62918000
164.69999040	0.00000000	58.91978000	12.62918000
164.89999039	0.00000000	59.66412000	12.62918000
165.09999037	0.00000000	60.03937000	12.67224000
165.29999036	0.00000000	60.03937000	13.00443000
165.49999035	0.00000000	59.70718000	13.41658000
165.69999034	0.00000000	59.29502000	13.42274000
165.89999033	0.00000000	59.28888000	13.83489000
166.09999032	0.00000000	58.87672000	14.16708000
166.29999030	0.00000000	58.54454000	14.21014000
166.49999029	0.00000000	58.50147000	14.21014000
166.69999028	0.00000000	58.50147000	14.16708000
166.89999027	0.00000000	58.50147000	13.79183000
167.09999026	0.00000000	58.50147000	13.04749000
167.29999024	0.00000000	58.54454000	12.67224000
167.49999023	0.00000000	58.87672000	12.62918000
167.69999022	0.00000000	59.28888000	12.62918000
167.89999021	0.00000000	59.29502000	12.62918000
168.09999020	0.00000000	59.70718000	12.67224000
168.29999018	0.00000000	59.99015000	13.00443000
168.49999017	0.00000000	59.66412000	13.37352000
168.69999016	0.00000000	58.91978000	13.04749000
168.89999015	0.00000000	58.54454000	13.04749000
169.09999014	0.00000000	58.50147000	13.41658000
169.29999013	0.00000000	58.50147000	13.37967000
169.49999011	0.00000000	58.50147000	13.41658000
169.69999010	0.00000000	58.50147000	13.00443000
169.89999009	0.00000000	58.50147000	12.72146000
170.09999008	0.00000000	58.50147000	13.00443000
170.29999007	0.00000000	58.50147000	13.37352000
170.49999005	0.00000000	58.50147000	13.00443000
170.69999004	0.00000000	58.54454000	12.67224000
170.89999003	0.00000000	58.87672000	12.62918000
171.09999002	0.00000000	59.24582000	12.62918000
171.29999001	0.00000000	58.91978000	12.62918000
171.49998999	0.00000000	58.91978000	12.62918000
171.69998998	0.00000000	59.24582000	12.62918000
171.89998997	0.00000000	58.87672000	12.62918000
172.09998996	0.00000000	58.54454000	12.62918000
172.29998995	0.00000000	58.50147000	12.62918000
172.49998994	0.00000000	58.50147000	12.67224000
172.69998992	0.00000000	58.50147000	13.00443000
172.89998991	0.00000000	58.50147000	13.37352000
173.09998990	0.00000000	58.50147000	13.00443000
173.29998989	0.00000000	58.50147000	12.67224000
173.49998988	0.00000000	58.50147000	12.67224000
173.69998986	0.00000000	58.50147000	13.00443000
173.89998985	0.00000000	58.50147000	13.37352000
174.09998984	0.00000000	58.50147000	13.04749000
174.29998983	0.00000000	58.50147000	13.04749000
174.49998982	0.00000000	58.50147000	13.37352000
174.69998980	0.00000000	58.50147000	13.00443000
174.89998979	0.00000000	58.50147000	12.67224000
175.09998978	0.00000000	58.50147000	12.62918000
175.29998977	0.00000000	58.50147000	12.67224000
175.49998976	0.00000000	58.50147000	13.00443000
175.69998975	0.00000000	58.50147000	13.41658000
175.89998973	0.00000000	58.50147000	13.37967000
176.09998972	0.00000000	58.50147000	13.41658000
176.29998971	0.00000000	58.50147000	13.00443000
176.49998970	0.00000000	58.50147000	12.67224000
176.69998969	0.00000000	58.50147000	12.62918000
176.89998967	0.00000000	58.50147000	12.62918000
177.09998966	0.00000000	58.50147000	12.67224000
177.29998965	0.00000000	58.50147000	13.00443000
177.49998964	0.00000000	58.50147000	13.37352000
177.69998963	0.00000000	58.50147000	13.00443000
177.89998961	0.00000000	58.50147000	12.67224000
178.09998960	0.00000000	58.50147000	12.62918000
178.29998959	0.00000000	58.50147000	12.67224000
178.49998958	0.00000000	58.50147000	13.04749000
178.69998957	0.00000000	58.50147000	13.74262000
178.89998956	0.00000000	58.50147000	13.79183000
179.09998954	0.00000000	58.50147000	13.46580000
179.29998953	0.00000000	58.50147000	13.83489000
179.49998952	0.00000000	58.50147000	14.11786000
179.69998951	0.00000000	58.50147000	13.79183000
179.89998950	0.00000000	58.50147000	13.04749000
180.09998948	0.00000000	58.50147000	12.67224000
180.29998947	0.00000000	58.50147000	12.62918000
180.49998946	0.00000000	58.50147000	12.62918000
180.69998945	0.00000000	58.50147000	12.62918000
180.89998944	0.00000000	58.50147000	12.62918000
181.09998942	0.00000000	58.50147000	12.62918000
181.29998941	0.00000000	58.50147000	12.67224000
181.49998940	0.00000000	58.50147000	13.04749000
181.69998939	0.00000000	58.50147000	13.79183000
181.89998938	0.00000000	58.50147000	14.16708000
182.09998937	0.00000000	58.50147000	14.21014000
182.29998935	0.00000000	58.50147000	14.16708000
182.49998934	0.00000000	58.50147000	13.79183000
182.69998933	0.00000000	58.50147000	13.04749000
182.89998932	0.00000000	58.50147000	12.67224000
183.09998931	0.00000000	58.50147000	12.62918000
183.29998929	0.00000000	58.50147000	12.62918000
183.49998928	0.00000000	58.50147000	12.62918000
183.69998927	0.00000000	58.50147000	12.62918000
183.89998926	0.00000000	58.50147000	12.67224000
184.09998925	0.00000000	58.50147000	13.04749000
184.29998923	0.00000000	58.50147000	13.79183000
184.49998922	0.00000000	58.50147000	14.16708000
184.69998921	0.00000000	58.50147000	14.21014000
184.89998920	0.00000000	58.50147000	14.21014000
185.09998919	0.00000000	58.50147000	14.16708000
185.29998918	0.00000000	58.50147000	13.79183000
185.49998916	0.00000000	58.50147000	13.04749000
185.69998915	0.00000000	58.50147000	12.67224000
185.89998914	0.00000000	58.50147000	12.62918000
186.09998913	0.00000000	58.50147000	12.62918000
186.29998912	0.00000000	58.50147000	12.62918000
186.49998910	0.00000000	58.50147000	12.62918000
186.69998909	0.00000000	58.50147000	12.62918000
186.89998908	0.00000000	58.50147000	12.67224000
187.09998907	0.00000000	58.50147000	13.04749000
187.29998906	0.00000000	58.50147000	13.79183000
187.49998904	0.00000000	58.50147000	14.16708000
187.69998903	0.00000000	58.50147000	14.21014000
187.89998902	0.00000000	58.50147000	14.21014000
188.09998901	0.00000000	58.50147000	14.16708000
188.29998900	0.00000000	58.54454000	13.79183000
188.49998899	0.00000000	58.87672000	13.04749000
188.69998897	0.00000000	59.24582000	12.62918000
188.89998896	0.00000000	58.87672000	12.21087000
189.09998895	0.00000000	58.54454000	11.51575000
189.29998894	0.00000000	58.50147000	11.51575000
189.49998893	0.00000000	58.50147000	12.21087000
189.69998891	0.00000000	58.50147000	12.58612000
189.89998890	0.00000000	58.50147000	12.62918000
190.09998889	0.00000000	58.50147000	12.67224000
190.29998888	0.00000000	58.50147000	13.00443000
190.49998887	0.00000000	58.50147000	13.37352000
190.69998885	0.00000000	58.50147000	13.04749000
190.89998884	0.00000000	58.50147000	13.09670000
191.09998883	0.00000000	58.50147000	13.74262000
191.29998882	0.00000000	58.50147000	13.74262000
191.49998881	0.00000000	58.50147000	13.04749000
191.69998880	0.00000000	58.50147000	12.67224000
191.89998878	0.00000000	58.50147000	12.62918000
192.09998877	0.00000000	58.50147000	12.62918000
192.29998876	0.00000000	58.50147000	12.62918000
192.49998875	0.00000000	58.50147000	12.62918000
192.69998874	0.00000000	58.50147000	12.62918000
192.89998872	0.00000000	58.50147000	12.62918000
193.09998871	0.00000000	58.50147000	12.62918000
193.29998870	0.00000000	58.50147000	12.67224000
193.49998869	0.00000000	58.50147000	13.04749000
193.69998868	0.00000000	58.50147000	13.79183000
193.89998866	0.00000000	58.50147000	14.16708000
194.09998865	0.00000000	58.50147000	14.16708000
194.29998864	0.00000000	58.50147000	13.83489000
194.49998863	0.00000000	58.50147000	13.46580000
194.69998862	0.00000000	58.50147000	13.83489000
194.89998861	0.00000000	58.50147000	14.16708000
195.09998859	0.00000000	58.50147000	14.16708000
195.29998858	0.00000000	58.50147000	13.79183000
195.49998857	0.00000000	58.50147000	13.04749000
195.69998856	0.00000000	58.50147000	12.67224000
195.89998855	0.00000000	58.50147000	12.62918000
196.09998853	0.00000000	58.50147000	12.62918000
