Time	Channel A	Channel B	Channel C
(us)	(V)	(mV)	(mV)

-4.49999956	0.00000000	53.71555000	9.84867000
-4.29999957	0.00000000	53.38336000	9.56569900
-4.09999958	0.00000000	53.01427000	9.84867000
-3.89999959	0.00000000	53.38336000	10.21161000
-3.69999960	0.00000000	53.66634000	9.84867000
-3.49999962	0.00000000	53.34030000	9.56569900
-3.29999963	0.00000000	52.59596000	9.84867000
-3.09999964	0.00000000	52.26993000	10.25467000
-2.89999965	0.00000000	52.59596000	10.26698000
-2.69999966	0.00000000	53.34030000	10.67298000
-2.49999968	0.00000000	53.71555000	10.95595000
-2.29999969	0.00000000	53.71555000	10.62992000
-2.09999970	0.00000000	53.38336000	9.93479300
-1.89999971	0.00000000	52.97121000	9.89173200
-1.69999972	0.00000000	52.96506000	10.25467000
-1.49999973	0.00000000	52.59596000	10.26698000
-1.29999975	0.00000000	52.64517000	10.62992000
-1.09999976	0.00000000	53.29109000	10.62992000
-0.89999977	0.00000000	53.34030000	10.31004000
-0.69999978	0.00000000	53.01427000	10.62992000
-0.49999979	0.00000000	53.34030000	10.62992000
-0.29999981	0.31803640	53.29109000	10.31004000
-0.09999982	0.63668800	52.64517000	10.67298000
0.10000017	0.95533960	52.59596000	10.95595000
0.30000016	0.95533960	52.96506000	10.62992000
0.50000015	0.79601380	52.92815000	9.89173200
0.70000013	0.15871060	52.96506000	9.51648500
0.90000012	-0.63668800	52.55290000	9.47342500
1.10000011	-1.59264300	52.22071000	9.51648500
1.30000010	-2.38927200	52.22071000	9.89173200
1.50000009	-2.70792300	52.59596000	10.62992000
1.70000008	-2.38927200	53.34030000	11.00517000
1.90000006	-1.11466500	53.71555000	11.04823000
2.10000005	0.79601380	53.71555000	11.04823000
2.30000004	2.86724900	53.34030000	11.00517000
2.50000003	4.61921700	52.64517000	10.62992000
2.70000002	5.41584600	52.59596000	9.89173200
2.90000000	4.61921700	52.92200000	9.51648500
3.09999999	2.70792300	52.55290000	9.47342500
3.29999998	-0.47736220	52.22071000	9.47342500
3.49999997	-3.98191400	52.22071000	9.47342500
3.69999996	-6.69045300	52.55290000	9.51648500
3.89999994	-7.96444400	52.96506000	9.89173200
4.09999993	-7.32714100	52.97121000	10.62992000
4.29999992	-4.61921700	53.38336000	11.00517000
4.49999991	-0.47736220	53.66634000	11.04823000
4.69999990	3.82258900	53.38336000	11.04823000
4.89999989	7.48646600	52.97121000	11.04823000
5.09999987	9.39837600	52.96506000	11.00517000
5.29999986	8.92039900	52.55290000	10.62992000
5.49999985	6.05315000	52.22071000	9.89173200
5.69999984	1.75196900	52.22071000	9.51648500
5.89999983	-2.86724900	52.55290000	9.51648500
6.09999981	-7.00848900	52.92200000	9.84867000
6.29999980	-9.23905000	52.59596000	10.25467000
6.49999979	-9.07972400	52.59596000	10.26698000
6.69999978	-6.84916400	52.92200000	10.62992000
6.89999977	-3.02657500	52.55290000	10.62992000
7.09999975	1.43331700	52.22071000	10.31004000
7.29999974	5.25652100	52.17765000	10.62992000
7.49999973	7.32714100	52.17765000	10.58686000
7.69999972	7.64579200	52.17765000	9.89173200
7.89999971	6.05315000	52.17765000	9.51648500
8.09999970	3.02657500	52.17765000	9.47342500
8.29999968	-0.31803640	52.17765000	9.47342500
8.49999967	-3.18590100	52.17765000	9.51648500
8.69999966	-4.77854300	52.17765000	9.84867000
8.89999965	-5.09719500	52.17765000	10.21161000
9.09999964	-4.30056600	52.17765000	9.84867000
9.29999962	-2.38927200	52.17765000	9.56569900
9.49999961	-0.47736220	52.22071000	9.84867000
9.69999960	1.27399100	52.55290000	10.21161000
9.89999959	2.22994600	52.92200000	9.84867000
10.09999958	2.54859700	52.55290000	9.51648500
10.29999956	2.07062000	52.22071000	9.47342500
10.49999955	1.27399100	52.17765000	9.51648500
10.69999954	0.47736220	52.17765000	9.89173200
10.89999953	-0.31803640	52.22071000	10.58686000
11.09999952	-0.79601380	52.55290000	10.58686000
11.29999951	-0.95533960	52.92200000	9.93479300
11.49999949	-0.95533960	52.59596000	9.93479300
11.69999948	-0.79601380	52.59596000	10.62992000
11.89999947	-0.31803640	52.92200000	11.00517000
12.09999946	-0.15871060	52.55290000	11.04823000
12.29999945	-0.15871060	52.22071000	11.04823000
12.49999943	0.00000000	52.22071000	11.04823000
12.69999942	0.00000000	52.55290000	11.04823000
12.89999941	0.00000000	52.92200000	11.04823000
13.09999940	0.00000000	52.59596000	11.04823000
13.29999939	0.00000000	52.59596000	11.00517000
13.49999937	0.00000000	52.92200000	10.62992000
13.69999936	0.00000000	52.55290000	9.89173200
13.89999935	-0.15871060	52.22071000	9.56569900
14.09999934	-0.15871060	52.17765000	9.84867000
14.29999933	-0.15871060	52.22071000	10.25467000
14.49999932	-0.15871060	52.55290000	10.26698000
14.69999930	-0.15871060	52.92200000	10.62992000
14.89999929	0.00000000	52.55290000	10.58686000
15.09999928	0.00000000	52.22071000	9.93479300
15.29999927	0.00000000	52.17765000	9.89173200
15.49999926	0.00000000	52.17765000	10.21161000
15.69999924	0.00000000	52.17765000	9.84867000
15.89999923	0.00000000	52.17765000	9.51648500
16.09999922	0.00000000	52.17765000	9.47342500
16.29999921	0.00000000	52.17765000	9.43036400
16.49999920	-0.15871060	52.22071000	9.09817800
16.69999919	-0.15871060	52.59596000	8.72908400
16.89999917	0.00000000	53.38336000	9.14124000
17.09999916	0.00000000	54.09079000	9.79945900
17.29999915	0.00000000	54.50295000	10.21161000
17.49999914	0.00000000	54.13385000	9.84867000
17.69999913	0.00000000	53.75861000	9.51648500
17.89999911	0.00000000	53.29109000	9.47342500
18.09999910	0.00000000	52.13459000	9.47342500
18.29999909	0.00000000	50.59670000	9.47342500
18.49999908	-0.15871060	49.05881000	9.47342500
18.69999907	0.00000000	47.90231000	9.47342500
18.89999905	-0.15871060	47.52707000	9.47342500
19.09999904	0.00000000	47.90231000	9.47342500
19.29999903	0.00000000	49.15108000	9.47342500
19.49999902	0.00000000	51.52559000	9.51648500
19.69999901	0.00000000	55.38263000	9.84867000
19.89999900	0.00000000	59.57185000	10.21161000
20.09999898	0.00000000	62.64764000	9.84867000
20.29999897	0.00000000	63.80413000	9.51648500
20.49999896	0.00000000	62.55536000	9.47342500
20.69999895	0.00000000	58.64296000	9.47342500
20.89999894	0.00000000	52.04232000	9.47342500
21.09999892	0.00000000	44.36515000	9.47342500
21.29999891	0.00000000	37.38312000	9.47342500
21.49999890	0.00000000	32.81865000	9.47342500
21.69999889	0.00000000	32.08046000	9.47342500
21.89999888	0.00000000	36.07283000	9.47342500
22.09999886	0.00000000	44.64198000	9.47342500
22.29999885	0.00000000	57.01279000	9.47342500
22.49999884	0.00000000	70.09104000	9.51648500
22.69999883	0.00000000	80.42568000	9.89173200
22.89999882	0.00000000	85.02091000	10.62992000
23.09999881	0.00000000	81.91437000	11.00517000
23.29999879	-0.15871060	72.18872000	11.09129000
23.49999878	0.00000000	57.01894000	11.46653000
23.69999877	0.00000000	38.92101000	12.21087000
23.89999876	0.00000000	22.73007000	12.53691000
24.09999875	0.00000000	12.30315000	12.16166000
24.29999873	0.00000000	10.11319000	11.04823000
24.49999872	0.00000000	17.93184000	9.84867000
24.69999871	0.00000000	34.91019000	8.63681000
24.89999870	0.00000000	56.92052000	6.72982200
25.09999869	0.00000000	78.93085000	5.24729300
25.29999867	0.00000000	95.86613000	4.82898600
25.49999866	0.00000000	103.17420000	5.24729300
25.69999865	0.00000000	98.94193000	6.82209600
25.89999864	0.00000000	84.23965000	9.55954600
26.09999863	0.00000000	62.18011000	13.04749000
26.29999862	0.00000000	37.43233000	16.90453000
26.49999860	0.00000000	15.46506000	19.92495000
26.69999859	0.00000000	1.60556100	21.08760000
26.89999858	0.00000000	-0.30757870	19.88189000
27.09999857	0.00000000	10.02707000	16.35089000
27.29999856	0.00000000	29.70595000	10.49459000
27.49999854	0.00000000	53.66634000	3.15575800
27.69999853	0.00000000	76.93159000	-4.09079700
27.89999852	0.00000000	94.66042000	-9.06126900
28.09999851	0.00000000	102.75590000	-9.84867000
28.29999850	0.00000000	98.94193000	-6.69291300
28.49999848	0.00000000	84.74409000	0.36909450
28.69999847	0.00000000	64.27164000	11.18356000
28.89999846	0.00000000	42.26131000	23.08686000
29.09999845	0.00000000	23.65896000	33.12008000
29.29999844	0.00000000	12.39542000	38.84104000
29.49999843	0.00000000	9.97785300	38.42273000
29.69999841	0.00000000	16.53543000	31.45300000
29.89999840	0.00000000	30.03199000	19.46358000
30.09999839	0.00000000	47.43479000	4.73671200
30.29999838	0.00000000	64.83144000	-9.89788300
30.49999837	0.00000000	78.42027000	-21.09375000
30.69999835	0.00000000	85.82062000	-26.07037000
30.89999834	0.00000000	85.86368000	-23.69586000
31.09999833	0.00000000	78.93085000	-13.61959000
31.29999832	0.00000000	67.01525000	2.13459600
31.49999831	0.00000000	53.02042000	19.54970000
31.69999829	0.00000000	39.88681000	35.02707000
31.89999828	0.00000000	29.79823000	45.84769000
32.09999827	0.00000000	25.51058000	49.24335000
32.29999826	0.00000000	26.95620000	44.26673000
32.49999825	0.00000000	33.19390000	31.91437000
32.69999824	0.00000000	43.20251000	15.32357000
32.89999822	0.00000000	54.41068000	-2.09768700
33.09999821	0.00000000	64.09325000	-16.77534000
33.29999820	0.00000000	70.69389000	-25.69513000
33.49999819	0.00000000	72.65625000	-27.27608000
33.69999818	0.00000000	69.99876000	-21.42593000
33.89999816	0.00000000	63.81028000	-9.06126900
34.09999815	0.00000000	55.33957000	7.52337600
34.29999814	0.00000000	46.87500000	24.06496000
34.49999813	0.00000000	40.68651000	36.88484000
34.69999812	0.00000000	37.94291000	43.48548000
34.89999810	0.00000000	39.05635000	43.11023000
35.09999809	0.00000000	43.24557000	35.77140000
35.29999808	0.00000000	49.05881000	23.03765000
35.49999807	0.00000000	55.20423000	7.98474400
35.69999806	0.00000000	60.18085000	-6.23154500
35.89999805	0.00000000	62.13705000	-15.89567000
36.09999803	0.00000000	61.06668000	-18.63927000
36.29999802	0.00000000	57.94783000	-14.81914000
36.49999801	0.00000000	53.34030000	-5.20423200
36.69999800	0.00000000	48.36368000	7.43110200
36.89999799	0.00000000	44.86958000	19.37131000
37.09999797	0.00000000	43.33784000	27.87278000
37.29999796	0.00000000	44.08833000	30.98548000
37.49999795	0.00000000	47.19488000	28.34030000
37.69999794	0.00000000	51.39025000	21.03838000
37.89999793	0.00000000	56.03469000	11.04823000
38.09999791	0.00000000	59.48573000	1.15034400
38.29999790	0.00000000	61.06668000	-5.39493100
38.49999789	0.00000000	60.69144000	-6.56373000
38.69999788	0.00000000	58.36614000	-2.74360200
38.89999787	0.00000000	54.87204000	5.29035400
39.09999786	0.00000000	50.59670000	14.81299000
39.29999784	0.00000000	46.36442000	22.48400000
39.49999783	0.00000000	43.28863000	26.34104000
39.69999782	-0.15871060	42.13213000	25.17839000
39.89999781	0.00000000	43.24557000	19.42052000
40.09999780	0.00000000	45.94611000	10.58686000
40.29999778	0.00000000	49.48326000	1.01501000
40.49999777	0.00000000	53.75861000	-6.23154500
40.69999776	0.00000000	57.99089000	-8.92593500
40.89999775	0.00000000	61.06668000	-6.27460600
41.09999774	0.00000000	62.27239000	0.64591530
41.29999772	0.00000000	61.48499000	9.89173200
41.49999771	0.00000000	59.15354000	19.46358000
41.69999770	0.00000000	55.29650000	26.34104000
41.89999769	0.00000000	51.06422000	28.34030000
42.09999768	0.00000000	47.52707000	25.68897000
42.29999767	0.00000000	44.82652000	19.54970000
42.49999765	0.00000000	43.66388000	11.46653000
42.69999764	0.00000000	44.40821000	3.75246000
42.89999763	0.00000000	46.32135000	-2.04847400
43.09999762	0.00000000	49.05881000	-4.78592500
43.29999761	0.00000000	52.13459000	-3.99852300
43.49999759	0.00000000	54.82898000	-0.14148620
43.69999758	0.00000000	56.40993000	6.36072800
43.89999757	0.00000000	56.82825000	13.18898000
44.09999756	0.00000000	56.50221000	17.88263000
44.29999755	0.00000000	55.71481000	19.88189000
44.49999753	0.00000000	54.96432000	19.55585000
44.69999752	0.00000000	54.17691000	17.23056000
44.89999751	0.00000000	53.80167000	13.79183000
45.09999750	0.00000000	53.71555000	9.89173200
45.29999749	0.00000000	53.29109000	6.44685000
45.49999748	0.00000000	52.08538000	4.12770700
45.69999746	0.00000000	50.12918000	3.70939900
45.89999745	0.00000000	47.43479000	4.82283400
46.09999744	0.00000000	44.78346000	6.72982200
46.29999743	0.00000000	43.24557000	9.09817800
46.49999742	0.00000000	43.28863000	11.38041000
46.69999740	0.00000000	45.24483000	13.32431000
46.89999739	0.00000000	49.19414000	14.07480000
47.09999738	0.00000000	54.55216000	13.79183000
47.29999737	0.00000000	60.35925000	12.96137000
47.49999736	0.00000000	64.60383000	11.79257000
47.69999734	0.00000000	66.92913000	9.79945900
47.89999733	0.00000000	66.37549000	7.56643700
48.09999732	0.00000000	61.76181000	5.61638700
48.29999731	0.00000000	54.09079000	4.91510800
48.49999730	0.00000000	45.98917000	5.66560000
48.69999729	0.00000000	38.96407000	7.93553100
48.89999727	0.00000000	34.39960000	10.62992000
49.09999726	0.00000000	33.70448000	13.00443000
49.29999725	0.00000000	37.94291000	15.32357000
49.49999724	0.00000000	45.98917000	16.81225000
49.69999723	0.00000000	55.24729000	16.76919000
49.89999721	0.00000000	63.76107000	14.85605000
50.09999720	0.00000000	69.53740000	11.38041000
50.29999719	0.00000000	71.02608000	7.56028500
50.49999718	0.00000000	67.58119000	4.08464600
50.69999717	0.00000000	59.90403000	2.12844500
50.89999715	0.00000000	50.68897000	1.71013800
51.09999714	0.00000000	42.17519000	2.54675200
51.29999713	0.00000000	36.40502000	5.29035400
51.49999712	0.00000000	34.86712000	9.47342500
51.69999711	0.00000000	37.94291000	13.69956000
51.89999710	0.00000000	44.82652000	16.81225000
52.09999708	0.00000000	53.24803000	18.35015000
52.29999707	0.00000000	60.59916000	17.97490000
52.49999706	0.00000000	65.20669000	15.64960000
52.69999705	0.00000000	65.99409000	12.21087000
52.89999704	0.00000000	62.55536000	8.31077700
53.09999702	0.00000000	56.40993000	4.87204700
53.29999701	0.00000000	49.10802000	2.59596400
53.49999700	0.00000000	42.59350000	2.59596400
53.69999699	0.00000000	39.14862000	4.82283400
53.89999698	0.00000000	39.48080000	7.84940900
54.09999696	0.00000000	43.28863000	10.58686000
54.29999695	0.00000000	49.05881000	12.53691000
54.49999694	0.00000000	55.20423000	13.69956000
54.69999693	0.00000000	60.22392000	13.65650000
54.89999692	0.00000000	62.55536000	12.16781000
55.09999691	0.00000000	62.13705000	9.93479300
55.29999689	0.00000000	58.68602000	8.40305000
55.49999688	0.00000000	52.97121000	7.98474400
55.69999687	0.00000000	47.61319000	8.35998900
55.89999686	0.00000000	43.71309000	9.55954600
56.09999685	0.00000000	42.17519000	11.42347000
56.29999683	0.00000000	43.33784000	13.28125000
56.49999682	0.00000000	46.78272000	13.61343000
56.69999681	0.00000000	51.75935000	12.11860000
56.89999680	0.00000000	56.36687000	9.42421200
57.09999679	0.00000000	59.48573000	6.36072800
57.29999677	0.00000000	60.64222000	3.66633800
57.49999676	0.00000000	59.48573000	2.12844500
57.69999675	0.00000000	56.45300000	2.17150600
57.89999674	0.00000000	52.64517000	4.17076700
58.09999673	0.00000000	49.52633000	8.40305000
58.29999672	0.00000000	47.52707000	13.74262000
58.49999670	0.00000000	46.40748000	18.35015000
58.69999669	0.00000000	46.78272000	21.03838000
58.89999668	0.00000000	48.68356000	20.99532000
59.09999667	0.00000000	50.97194000	17.88263000
59.29999666	0.00000000	53.29109000	12.16781000
59.49999664	0.00000000	54.82898000	5.61638700
59.69999663	0.00000000	55.24729000	0.22145670
59.89999662	0.00000000	54.87204000	-3.25418300
60.09999661	0.00000000	53.75861000	-3.58021600
60.29999660	0.00000000	52.59596000	-0.51673230
60.49999658	0.00000000	51.80241000	5.29035400
60.69999657	0.00000000	51.01501000	12.58612000
60.89999656	0.00000000	50.68897000	19.50664000
61.09999655	0.00000000	51.01501000	24.10802000
61.29999654	0.00000000	51.80241000	25.27067000
61.49999653	0.00000000	52.50984000	22.52707000
61.69999651	0.00000000	52.92200000	16.39395000
61.89999650	0.00000000	52.50984000	8.31077700
62.09999649	0.00000000	51.80241000	0.64591530
62.29999648	0.00000000	50.97194000	-4.74286400
62.49999647	0.00000000	50.26451000	-6.32381900
62.69999645	0.00000000	49.85236000	-4.09079700
62.89999644	0.00000000	50.22145000	0.59670270
63.09999643	0.00000000	50.63976000	7.19734200
63.29999642	0.00000000	51.43332000	14.90526000
63.49999641	0.00000000	52.96506000	21.41363000
63.69999639	0.00000000	54.04158000	25.26452000
63.89999638	0.00000000	54.54601000	25.26452000
64.09999637	0.00000000	54.46604000	21.50590000
64.29999636	0.00000000	54.07849000	15.69882000
64.49999635	0.00000000	52.50984000	9.09817800
64.69999634	0.00000000	50.68897000	2.55290300
64.89999632	0.00000000	49.48326000	-2.04847400
65.09999631	0.00000000	49.05881000	-3.67249000
65.29999630	0.00000000	49.05881000	-2.55905500
65.49999629	0.00000000	49.48326000	0.55364170
65.69999628	0.00000000	50.63976000	5.15501900
65.89999626	0.00000000	52.13459000	10.21161000
66.09999625	0.00000000	53.29109000	14.49311000
66.29999624	0.00000000	53.62328000	17.97490000
66.49999623	0.00000000	52.92200000	19.50664000
66.69999622	0.00000000	51.39025000	18.81152000
66.89999620	0.00000000	50.22145000	16.90453000
67.09999619	0.00000000	49.05881000	14.21014000
67.29999618	0.00000000	48.40674000	11.46653000
67.49999617	0.00000000	49.52633000	9.05511800
67.69999616	0.00000000	51.80241000	6.31151500
67.89999615	0.00000000	54.13385000	3.61712600
68.09999613	0.00000000	56.45300000	1.71013800
68.29999612	0.00000000	57.90477000	0.92888770
68.49999611	0.00000000	57.52953000	1.71013800
68.69999610	0.00000000	55.20423000	3.66633800
68.89999609	0.00000000	51.75935000	6.82209600
69.09999607	0.00000000	47.85310000	11.04823000
69.29999606	0.00000000	44.40821000	15.32357000
69.49999605	0.00000000	42.13213000	18.81152000
69.69999604	0.00000000	42.17519000	21.08760000
69.89999603	0.00000000	44.82652000	21.03838000
70.09999601	0.00000000	49.10802000	18.39321000
70.29999600	0.00000000	54.13385000	14.11786000
70.49999599	0.00000000	59.15354000	9.09817800
70.69999598	0.00000000	62.59842000	4.08464600
70.89999597	0.00000000	63.76107000	0.59670270
71.09999596	0.00000000	62.18011000	-0.97810030
71.29999594	0.00000000	57.94783000	-0.51673230
71.49999593	0.00000000	52.17765000	2.55290300
71.69999592	0.00000000	46.36442000	7.51722400
71.89999591	0.00000000	41.75689000	12.49385000
72.09999590	0.00000000	39.43159000	16.39395000
72.29999588	0.00000000	40.17593000	18.35015000
72.49999587	0.00000000	43.24557000	18.39321000
72.69999586	0.00000000	47.94537000	16.85531000
72.89999585	0.00000000	53.71555000	14.16092000
73.09999584	0.00000000	59.06127000	11.04823000
73.29999582	0.00000000	62.18011000	7.98474400
73.49999581	0.00000000	62.64764000	5.70866100
73.69999580	0.00000000	61.06668000	5.29035400
73.89999579	0.00000000	57.57259000	6.36072800
74.09999578	0.00000000	52.59596000	7.84940900
74.29999577	0.00000000	47.98843000	9.00590400
74.49999575	0.00000000	44.82652000	9.43036400
74.69999574	0.00000000	43.24557000	9.43036400
74.89999573	0.00000000	43.28863000	9.00590400
75.09999572	0.00000000	45.20177000	7.89247000
75.29999571	0.00000000	48.64050000	6.82209600
75.49999569	0.00000000	52.08538000	6.86515700
75.69999568	0.00000000	54.82898000	8.35383800
75.89999567	0.00000000	56.36687000	10.67298000
76.09999566	0.00000000	56.40993000	13.00443000
76.29999565	0.00000000	55.29650000	15.27436000
76.49999563	0.00000000	53.75861000	16.39395000
76.69999562	0.00000000	52.22071000	15.60654000
76.89999561	0.00000000	51.06422000	13.28125000
77.09999560	0.00000000	50.63976000	9.38115100
77.29999559	0.00000000	50.59670000	4.82898600
77.49999558	0.00000000	50.59670000	0.97194880
77.69999556	-0.15871060	50.59670000	-0.93503930
77.89999555	0.00000000	50.55364000	-0.55979330
78.09999554	0.00000000	50.17839000	2.17765700
78.29999553	0.00000000	49.39099000	6.77903500
78.49999552	0.00000000	48.68356000	12.16166000
78.69999550	0.00000000	48.32062000	16.81225000
78.89999549	0.00000000	49.10802000	19.92495000
79.09999548	0.00000000	50.59670000	21.04454000
79.29999547	0.00000000	52.22071000	19.50664000
79.49999546	0.00000000	54.13385000	15.69882000
79.69999544	0.00000000	56.03469000	11.04823000
79.89999543	0.00000000	56.74212000	6.40378900
80.09999542	0.00000000	55.99163000	2.50369100
80.29999541	0.00000000	53.71555000	0.22145670
80.49999540	0.00000000	51.01501000	-0.18454720
80.69999539	0.00000000	48.68356000	1.71013800
80.89999537	0.00000000	46.73966000	4.77977300
81.09999536	0.00000000	45.98917000	8.31077700
81.29999535	0.00000000	46.36442000	12.16166000
81.49999534	0.00000000	47.94537000	15.27436000
81.69999533	0.00000000	50.63976000	17.23056000
81.89999531	0.00000000	53.66634000	18.01796000
82.09999530	0.00000000	55.99163000	17.23056000
82.29999529	0.00000000	56.78519000	15.32357000
82.49999528	0.00000000	56.40993000	12.58612000
82.69999527	0.00000000	54.87204000	9.51648500
82.89999525	0.00000000	52.59596000	6.72982200
83.09999524	0.00000000	50.63976000	4.40452700
83.29999523	0.00000000	49.05881000	2.50369100
83.49999522	0.00000000	47.94537000	2.08538400
83.69999521	0.00000000	47.90231000	2.82357300
83.89999520	0.00000000	48.64050000	4.08464600
84.09999518	0.00000000	49.43405000	6.82209600
84.29999517	0.00000000	50.59670000	10.62992000
84.49999516	0.00000000	51.71013000	14.11786000
84.69999515	0.00000000	52.13459000	16.85531000
84.89999514	0.00000000	52.17765000	18.35015000
85.09999512	0.00000000	52.17765000	17.97490000
85.29999511	0.00000000	52.17765000	15.64960000
85.49999510	0.00000000	52.17765000	12.16166000
85.69999509	0.00000000	52.22071000	7.89247000
85.89999508	0.00000000	52.55290000	3.66633800
86.09999506	0.00000000	52.92200000	0.59670270
86.29999505	0.00000000	52.50984000	-0.55979330
86.49999504	0.00000000	51.75935000	0.64591530
86.69999503	0.00000000	50.59670000	4.08464600
86.89999502	0.00000000	49.43405000	9.05511800
87.09999501	0.00000000	48.68356000	13.69956000
87.29999499	0.00000000	48.27140000	17.18750000
87.49999498	0.00000000	48.73277000	19.08834000
87.69999497	0.00000000	49.85236000	18.30093000
87.89999496	0.00000000	51.75935000	15.27436000
88.09999495	0.00000000	53.29109000	11.00517000
88.29999493	0.00000000	54.09079000	6.40378900
88.49999492	0.00000000	54.45374000	2.50369100
88.69999491	0.00000000	53.71555000	0.22145670
88.89999490	0.00000000	52.59596000	-0.14148620
89.09999489	0.00000000	51.71013000	2.22071800
89.29999487	0.00000000	50.17839000	6.77903500
89.49999486	0.00000000	48.36368000	12.16166000
89.69999485	0.00000000	47.94537000	16.76919000
89.89999484	0.00000000	48.64050000	19.46358000
90.09999483	0.00000000	49.43405000	19.42052000
90.29999482	0.00000000	50.59670000	16.39395000
90.49999480	0.00000000	51.71013000	11.42347000
90.69999479	0.00000000	52.13459000	6.40378900
90.89999478	0.00000000	52.17765000	2.17765700
91.09999477	0.00000000	52.17765000	-0.09842519
91.29999476	0.00000000	52.17765000	0.64591530
91.49999474	0.00000000	52.17765000	3.70939900
91.69999473	0.00000000	52.17765000	8.35998900
91.89999472	0.00000000	52.17765000	13.69956000
92.09999471	0.00000000	52.17765000	17.88263000
92.29999470	0.00000000	52.17765000	19.46358000
92.49999468	0.00000000	52.13459000	18.35015000
92.69999467	0.00000000	51.75935000	15.23130000
92.89999466	0.00000000	50.97194000	10.62992000
93.09999465	0.00000000	50.22145000	5.66560000
93.29999464	0.00000000	49.43405000	2.22071800
93.49999463	0.00000000	49.05881000	1.01501000
93.69999461	0.00000000	49.05881000	2.17765700
93.89999460	0.00000000	49.52633000	5.24729300
94.09999459	0.00000000	51.06422000	9.47342500
94.29999458	0.00000000	53.34030000	13.69956000
94.49999457	0.00000000	55.24729000	16.72613000
94.69999455	0.00000000	56.45300000	17.50738000
94.89999454	0.00000000	56.78519000	15.60654000
95.09999453	0.00000000	55.99163000	12.21087000
95.29999452	0.00000000	53.66634000	8.31077700
95.49999451	0.00000000	50.63976000	4.87204700
95.69999449	0.00000000	47.90231000	2.59596400
95.89999448	0.00000000	45.89690000	2.59596400
96.09999447	0.00000000	44.40821000	4.82283400
96.29999446	0.00000000	44.08833000	7.89247000
96.49999445	0.00000000	46.03223000	11.00517000
96.69999444	0.00000000	49.43405000	13.65650000
96.89999442	0.00000000	53.34030000	14.85605000
97.09999441	0.00000000	56.78519000	14.49311000
97.29999440	0.00000000	59.11048000	13.32431000
97.49999439	0.00000000	59.52879000	11.00517000
97.69999438	0.00000000	58.36614000	8.40305000
97.89999436	0.00000000	56.03469000	6.82209600
98.09999435	0.00000000	52.55290000	6.35457700
98.29999434	0.00000000	49.05881000	6.35457700
98.49999433	0.00000000	45.89690000	6.77903500
98.69999432	0.00000000	43.28863000	7.89247000
98.89999430	0.00000000	42.55044000	9.00590400
99.09999429	0.00000000	44.40821000	9.47342500
99.29999428	0.00000000	47.47785000	9.84867000
99.49999427	0.00000000	50.97194000	10.25467000
99.69999426	0.00000000	54.45374000	10.26698000
99.89999425	0.00000000	56.78519000	10.67298000
100.09999423	0.00000000	57.99089000	11.04823000
100.29999422	0.00000000	57.99089000	11.46653000
100.49999421	0.00000000	56.78519000	12.16166000
100.69999420	0.00000000	54.45374000	12.11860000
100.89999419	0.00000000	51.01501000	11.00517000
101.09999417	0.00000000	47.94537000	9.47342500
101.29999416	0.00000000	45.94611000	7.89247000
101.49999415	0.00000000	44.78346000	6.36072800
101.69999414	0.00000000	44.78346000	5.19808000
101.89999413	0.00000000	45.94611000	4.87204700
102.09999411	0.00000000	47.85310000	5.66560000
102.29999410	0.00000000	50.22145000	7.98474400
102.49999409	0.00000000	52.55290000	11.00517000
102.69999408	0.00000000	54.82898000	13.74262000
102.89999407	0.00000000	55.99163000	15.64960000
103.09999406	0.00000000	55.67175000	16.39395000
103.29999404	0.00000000	54.87204000	15.23130000
103.49999403	0.00000000	53.29109000	12.58612000
103.69999402	0.00000000	51.01501000	9.47342500
103.89999401	0.00000000	49.05881000	6.36072800
104.09999400	0.00000000	47.52707000	3.70939900
104.29999398	0.00000000	46.73966000	2.59596400
104.49999397	0.00000000	47.10260000	3.66633800
104.69999396	0.00000000	47.85310000	5.93626900
104.89999395	0.00000000	49.05881000	8.31077700
105.09999394	0.00000000	50.59670000	11.04823000
105.29999392	0.00000000	52.13459000	13.69956000
105.49999391	0.00000000	53.29109000	15.18824000
105.69999390	0.00000000	53.66634000	14.85605000
105.89999389	0.00000000	53.29109000	12.95522000
106.09999388	0.00000000	52.13459000	10.67298000
106.29999387	0.00000000	50.63976000	8.31077700
106.49999385	0.00000000	49.48326000	6.44685000
106.69999384	0.00000000	49.10802000	5.66560000
106.89999383	0.00000000	49.43405000	6.40378900
107.09999382	0.00000000	50.22145000	7.89247000
107.29999381	0.00000000	51.01501000	9.47342500
107.49999379	0.00000000	52.17765000	11.00517000
107.69999378	0.00000000	53.24803000	12.16166000
107.89999377	0.00000000	53.29109000	12.53691000
108.09999376	0.00000000	52.55290000	12.11860000
108.29999375	0.00000000	51.75935000	10.58686000
108.49999374	0.00000000	50.59670000	8.35383800
108.69999372	0.00000000	49.48326000	6.82209600
108.89999371	0.00000000	49.05881000	6.35457700
109.09999370	0.00000000	49.05881000	6.40378900
109.29999369	0.00000000	49.48326000	7.19734200
109.49999368	0.00000000	50.59670000	9.09817800
109.69999366	0.00000000	51.71013000	10.96211000
109.89999365	0.00000000	52.17765000	12.16166000
110.09999364	0.00000000	52.55290000	12.58612000
110.29999363	0.00000000	52.87278000	12.53691000
110.49999362	0.00000000	52.13459000	11.74951000
110.69999360	0.00000000	51.01501000	9.84867000
110.89999359	0.00000000	50.22145000	7.98474400
111.09999358	0.00000000	49.43405000	6.77903500
111.29999357	0.00000000	49.05881000	6.35457700
111.49999356	0.00000000	49.05881000	6.35457700
111.69999355	0.00000000	49.43405000	6.77903500
111.89999353	0.00000000	50.22145000	7.89247000
112.09999352	0.00000000	50.97194000	9.05511800
112.29999351	0.00000000	51.75935000	9.84867000
112.49999350	0.00000000	52.13459000	10.62992000
112.69999349	0.00000000	52.13459000	11.00517000
112.89999347	0.00000000	51.75935000	11.04823000
113.09999346	0.00000000	51.01501000	11.00517000
113.29999345	0.00000000	50.63976000	10.62992000
113.49999344	0.00000000	50.59670000	9.89173200
113.69999343	0.00000000	50.59670000	9.51648500
113.89999341	0.00000000	50.59670000	9.43036400
114.09999340	0.00000000	50.59670000	9.05511800
114.29999339	0.00000000	50.59670000	8.31077700
114.49999338	0.00000000	50.59670000	7.93553100
114.69999337	0.00000000	50.59670000	7.89247000
114.89999336	0.00000000	50.59670000	7.89247000
115.09999334	0.00000000	50.59670000	7.89247000
115.29999333	0.00000000	50.59670000	7.93553100
115.49999332	0.00000000	50.59670000	8.31077700
115.69999331	0.00000000	50.59670000	9.09817800
115.89999330	0.00000000	50.59670000	9.84867000
116.09999328	0.00000000	50.59670000	10.62992000
116.29999327	0.00000000	50.59670000	11.00517000
116.49999326	0.00000000	50.59670000	11.04823000
116.69999325	0.00000000	50.59670000	11.00517000
116.89999324	0.00000000	50.59670000	10.62992000
117.09999322	0.00000000	50.59670000	9.84867000
117.29999321	0.00000000	50.63976000	9.09817800
117.49999320	0.00000000	51.01501000	8.26771600
117.69999319	0.00000000	51.75935000	7.56028500
117.89999318	0.00000000	52.13459000	7.14812900
118.09999317	0.00000000	52.17765000	7.51722400
118.29999315	0.00000000	52.13459000	7.89247000
118.49999314	0.00000000	51.71013000	8.31077700
118.69999313	0.00000000	50.59670000	9.09817800
118.89999312	0.00000000	49.43405000	9.84867000
119.09999311	0.00000000	48.68356000	10.62992000
119.29999309	0.00000000	48.22834000	11.04823000
119.49999308	0.00000000	48.26525000	11.42347000
119.69999307	0.00000000	48.27140000	11.74336000
119.89999306	0.00000000	49.10802000	11.00517000
120.09999305	0.00000000	50.59670000	9.89173200
120.29999303	0.00000000	52.13459000	9.09817800
120.49999302	0.00000000	53.29109000	8.31077700
120.69999301	0.00000000	53.71555000	7.98474400
120.89999300	0.00000000	53.71555000	8.26771600
121.09999299	0.00000000	53.29109000	8.63681000
121.29999298	0.00000000	52.13459000	8.26771600
121.49999296	0.00000000	50.59670000	7.98474400
121.69999295	0.00000000	49.05881000	8.31077700
121.89999294	0.00000000	47.90231000	9.05511800
122.09999293	0.00000000	47.52707000	9.47342500
122.29999292	0.00000000	47.85310000	9.89173200
122.49999290	0.00000000	48.64050000	10.62992000
122.69999289	0.00000000	49.43405000	11.00517000
122.89999288	0.00000000	50.63976000	11.04823000
123.09999287	0.00000000	52.13459000	11.00517000
123.29999286	0.00000000	53.29109000	10.62992000
123.49999284	0.00000000	53.66634000	9.89173200
123.69999283	0.00000000	53.34030000	9.47342500
123.89999282	0.00000000	52.59596000	9.05511800
124.09999281	0.00000000	52.17765000	8.31077700
124.29999280	0.00000000	51.71013000	7.98474400
124.49999279	0.00000000	50.59670000	8.26771600
124.69999277	0.00000000	49.48326000	8.67987200
124.89999276	0.00000000	49.05881000	8.68602300
125.09999275	0.00000000	48.97269000	9.09817800
125.29999274	0.00000000	48.64050000	9.43036400
125.49999273	0.00000000	48.32062000	9.51648500
125.69999271	0.00000000	49.05881000	9.89173200
125.89999270	0.00000000	50.17839000	10.62992000
126.09999269	0.00000000	51.01501000	11.00517000
126.29999268	0.00000000	52.13459000	11.00517000
126.49999267	0.00000000	52.87278000	10.62992000
126.69999265	0.00000000	52.50984000	9.84867000
126.89999264	0.00000000	51.80241000	9.09817800
127.09999263	0.00000000	50.97194000	8.31077700
127.29999262	0.00000000	50.22145000	7.93553100
127.49999261	0.00000000	49.39099000	7.89247000
127.69999260	0.00000000	48.68356000	7.93553100
127.89999258	0.00000000	48.27140000	8.31077700
128.09999257	0.00000000	48.64050000	9.05511800
128.29999256	0.00000000	49.05881000	9.43036400
128.49999255	0.00000000	49.85236000	9.47342500
128.69999254	0.00000000	51.34104000	9.47342500
128.89999252	0.00000000	52.13459000	9.47342500
129.09999251	0.00000000	52.55290000	9.47342500
129.29999250	0.00000000	52.87278000	9.47342500
129.49999249	0.00000000	52.08538000	9.43036400
129.69999248	0.00000000	50.63976000	9.05511800
129.89999246	0.00000000	49.48326000	8.31077700
130.09999245	0.00000000	49.01575000	7.98474400
130.29999244	0.00000000	48.64050000	8.31077700
130.49999243	0.00000000	48.32062000	9.05511800
130.69999242	0.00000000	49.05881000	9.43036400
130.89999241	0.00000000	50.17839000	9.47342500
131.09999239	0.00000000	50.97194000	9.47342500
131.29999238	0.00000000	51.75935000	9.47342500
131.49999237	0.00000000	52.13459000	9.43036400
131.69999236	0.00000000	52.13459000	9.09817800
131.89999235	0.00000000	51.75935000	8.68602300
132.09999233	0.00000000	51.01501000	8.67987200
132.29999232	0.00000000	50.63976000	8.31077700
132.49999231	0.00000000	50.55364000	8.31077700
132.69999230	0.00000000	50.17839000	8.63681000
132.89999229	0.00000000	49.48326000	8.31077700
133.09999227	0.00000000	49.48326000	8.40305000
133.29999226	0.00000000	50.17839000	9.47342500
133.49999225	0.00000000	50.55364000	10.58686000
133.69999224	0.00000000	50.59670000	10.95595000
133.89999223	0.00000000	50.59670000	10.62992000
134.09999222	0.00000000	50.59670000	9.84867000
134.29999220	0.00000000	50.59670000	9.09817800
134.49999219	0.00000000	50.59670000	8.31077700
134.69999218	0.00000000	50.59670000	7.89247000
134.89999217	0.00000000	50.59670000	7.47416300
135.09999216	0.00000000	50.63976000	6.77903500
135.29999214	0.00000000	50.97194000	6.77903500
135.49999213	0.00000000	51.34104000	7.51722400
135.69999212	0.00000000	50.97194000	8.31077700
135.89999211	0.00000000	50.63976000	9.47342500
136.09999210	0.00000000	50.55364000	10.58686000
136.29999208	0.00000000	50.17839000	11.00517000
136.49999207	0.00000000	49.43405000	11.04823000
136.69999206	0.00000000	49.10802000	11.00517000
136.89999205	0.00000000	49.43405000	10.62992000
137.09999204	0.00000000	50.17839000	9.84867000
137.29999203	0.00000000	50.59670000	9.09817800
137.49999201	0.00000000	51.01501000	8.31077700
137.69999200	0.00000000	51.75935000	7.93553100
137.89999199	0.00000000	52.13459000	7.89247000
138.09999198	0.00000000	52.13459000	7.89247000
138.29999197	0.00000000	51.75935000	7.93553100
138.49999195	0.00000000	50.97194000	8.31077700
138.69999194	0.00000000	50.22145000	9.05511800
138.89999193	0.00000000	49.43405000	9.47342500
139.09999192	0.00000000	49.05881000	9.89173200
139.29999191	0.00000000	49.05881000	10.62992000
139.49999189	0.00000000	49.43405000	11.00517000
139.69999188	0.00000000	50.17839000	11.04823000
139.89999187	0.00000000	50.59670000	11.00517000
140.09999186	0.00000000	51.01501000	10.62992000
140.29999185	0.00000000	51.71013000	9.84867000
140.49999184	0.00000000	51.71013000	9.09817800
140.69999182	0.00000000	51.01501000	8.31077700
140.89999181	0.00000000	50.59670000	7.93553100
141.09999180	0.00000000	50.17839000	7.89247000
141.29999179	0.00000000	49.48326000	7.93553100
141.49999178	0.00000000	49.48326000	8.35998900
141.69999176	0.00000000	50.17839000	9.47342500
141.89999175	0.00000000	50.55364000	10.58686000
142.09999174	0.00000000	50.59670000	11.00517000
142.29999173	0.00000000	50.59670000	11.04823000
142.49999172	0.00000000	50.59670000	11.00517000
142.69999170	0.00000000	50.59670000	10.58686000
142.89999169	0.00000000	50.59670000	9.47342500
143.09999168	0.00000000	50.55364000	8.35998900
143.29999167	0.00000000	50.17839000	7.89247000
143.49999166	0.00000000	49.43405000	7.47416300
143.69999165	0.00000000	49.10802000	6.77903500
143.89999163	0.00000000	49.43405000	6.77903500
144.09999162	0.00000000	50.17839000	7.51722400
144.29999161	0.00000000	50.55364000	8.26771600
144.49999160	0.00000000	50.59670000	9.05511800
144.69999159	0.00000000	50.59670000	9.47342500
144.89999157	0.00000000	50.59670000	9.84867000
145.09999156	0.00000000	50.59670000	10.21161000
145.29999155	0.00000000	50.55364000	9.84867000
145.49999154	0.00000000	50.22145000	9.51648500
145.69999153	0.00000000	49.80930000	9.43036400
145.89999151	0.00000000	49.80315000	9.05511800
146.09999150	0.00000000	49.43405000	8.31077700
146.29999149	0.00000000	49.48326000	7.93553100
146.49999148	0.00000000	50.17839000	7.89247000
146.69999147	0.00000000	50.55364000	7.93553100
146.89999146	0.00000000	50.59670000	8.31077700
147.09999144	0.00000000	50.59670000	9.05511800
147.29999143	0.00000000	50.63976000	9.47342500
147.49999142	0.00000000	50.97194000	9.89173200
147.69999141	0.00000000	51.34104000	10.62992000
147.89999140	0.00000000	50.92888000	10.95595000
148.09999138	0.00000000	50.22145000	10.62992000
148.29999137	0.00000000	49.43405000	9.84867000
148.49999136	0.00000000	49.05881000	9.14124000
148.69999135	0.00000000	49.01575000	8.68602300
148.89999134	0.00000000	49.05881000	8.67987200
149.09999132	0.00000000	49.43405000	8.26771600
149.29999131	0.00000000	50.17839000	7.98474400
149.49999130	0.00000000	50.55364000	8.31077700
149.69999129	0.00000000	50.59670000	9.05511800
149.89999128	0.00000000	50.59670000	9.43036400
150.09999127	0.00000000	50.59670000	9.51648500
150.29999125	0.00000000	50.59670000	9.84867000
150.49999124	0.00000000	50.59670000	10.25467000
150.69999123	0.00000000	50.55364000	10.21776000
150.89999122	0.00000000	50.22145000	10.25467000
151.09999121	0.00000000	49.80930000	9.84867000
151.29999119	0.00000000	49.84621000	9.51648500
151.49999118	0.00000000	49.80930000	9.47342500
151.69999117	0.00000000	50.22145000	9.47342500
151.89999116	0.00000000	50.55364000	9.47342500
152.09999115	0.00000000	50.59670000	9.47342500
152.29999113	0.00000000	50.59670000	9.47342500
152.49999112	0.00000000	50.59670000	9.47342500
152.69999111	0.00000000	50.59670000	9.47342500
152.89999110	0.00000000	50.59670000	9.47342500
153.09999109	0.00000000	50.59670000	9.47342500
153.29999108	0.00000000	50.59670000	9.47342500
153.49999106	0.00000000	50.55364000	9.47342500
153.69999105	0.00000000	50.17839000	9.47342500
153.89999104	0.00000000	49.43405000	9.47342500
154.09999103	0.00000000	49.05881000	9.47342500
154.29999102	0.00000000	49.01575000	9.47342500
154.49999100	0.00000000	49.05881000	9.47342500
154.69999099	0.00000000	49.43405000	9.47342500
154.89999098	0.00000000	50.17839000	9.43036400
155.09999097	0.00000000	50.55364000	9.05511800
155.29999096	0.00000000	50.59670000	8.31077700
155.49999094	0.00000000	50.59670000	7.93553100
155.69999093	0.00000000	50.59670000	7.89247000
155.89999092	0.00000000	50.59670000	7.93553100
156.09999091	0.00000000	50.55364000	8.31077700
156.29999090	0.00000000	50.17839000	9.05511800
156.49999089	0.00000000	49.43405000	9.43036400
156.69999087	0.00000000	49.05881000	9.47342500
156.89999086	0.00000000	49.01575000	9.47342500
157.09999085	0.00000000	49.01575000	9.47342500
157.29999084	0.00000000	49.01575000	9.47342500
157.49999083	0.00000000	49.01575000	9.43036400
157.69999081	0.00000000	49.05881000	9.05511800
157.89999080	0.00000000	49.43405000	8.31077700
158.09999079	0.00000000	50.17839000	7.93553100
158.29999078	0.00000000	50.55364000	7.89247000
158.49999077	0.00000000	50.59670000	7.89247000
158.69999075	0.00000000	50.59670000	7.89247000
158.89999074	0.00000000	50.63976000	7.93553100
159.09999073	0.00000000	50.97194000	8.31077700
159.29999072	0.00000000	51.29183000	9.05511800
159.49999071	0.00000000	50.55364000	9.47342500
159.69999070	0.00000000	49.43405000	9.84867000
159.89999068	0.00000000	48.68356000	10.21161000
160.09999067	0.00000000	48.27140000	9.84867000
160.29999066	0.00000000	48.64050000	9.51648500
160.49999065	0.00000000	48.97269000	9.47342500
160.69999064	0.00000000	49.05881000	9.43036400
160.89999062	0.00000000	49.43405000	9.05511800
161.09999061	0.00000000	50.17839000	8.31077700
161.29999060	0.00000000	50.55364000	7.98474400
161.49999059	0.00000000	50.59670000	8.26771600
161.69999058	0.00000000	50.59670000	8.63681000
161.89999056	0.00000000	50.55364000	8.31077700
162.09999055	0.00000000	50.22145000	8.35998900
162.29999054	0.00000000	49.85236000	9.05511800
162.49999053	0.00000000	50.17839000	9.43036400
162.69999052	0.00000000	50.12918000	9.47342500
162.89999051	0.00000000	49.43405000	9.47342500
163.09999049	0.00000000	49.05881000	9.47342500
163.29999048	0.00000000	49.01575000	9.47342500
163.49999047	0.00000000	49.01575000	9.47342500
163.69999046	0.00000000	49.01575000	9.47342500
163.89999045	0.00000000	49.01575000	9.43036400
164.09999043	0.00000000	49.05881000	9.05511800
164.29999042	0.00000000	49.43405000	8.31077700
164.49999041	0.00000000	50.17839000	7.93553100
164.69999040	0.00000000	50.55364000	7.93553100
164.89999039	0.00000000	50.59670000	8.31077700
165.09999037	0.00000000	50.59670000	9.05511800
165.29999036	0.00000000	50.59670000	9.43036400
165.49999035	0.00000000	50.59670000	9.47342500
165.69999034	0.00000000	50.55364000	9.47342500
165.89999033	0.00000000	50.17839000	9.47342500
166.09999032	0.00000000	49.43405000	9.47342500
166.29999030	0.00000000	49.05881000	9.47342500
166.49999029	0.00000000	49.01575000	9.43036400
166.69999028	0.00000000	49.01575000	9.09817800
166.89999027	0.00000000	49.05881000	8.72908400
167.09999026	0.00000000	49.43405000	9.09817800
167.29999024	0.00000000	50.17839000	9.38115100
167.49999023	0.00000000	50.55364000	9.05511800
167.69999022	0.00000000	50.59670000	8.35998900
167.89999021	0.00000000	50.59670000	8.35998900
168.09999020	0.00000000	50.59670000	9.05511800
168.29999018	0.00000000	50.59670000	9.43036400
168.49999017	0.00000000	50.59670000	9.47342500
168.69999016	0.00000000	50.55364000	9.47342500
168.89999015	0.00000000	50.17839000	9.47342500
169.09999014	0.00000000	49.43405000	9.43036400
169.29999013	0.00000000	49.05881000	9.05511800
169.49999011	0.00000000	49.01575000	8.35998900
169.69999010	0.00000000	49.01575000	8.35998900
169.89999009	0.00000000	49.01575000	9.05511800
170.09999008	0.00000000	49.01575000	9.43036400
170.29999007	0.00000000	49.01575000	9.47342500
170.49999005	0.00000000	49.01575000	9.47342500
170.69999004	0.00000000	49.05881000	9.47342500
170.89999003	0.00000000	49.43405000	9.43036400
171.09999002	0.00000000	50.17839000	9.05511800
171.29999001	0.00000000	50.50443000	8.35998900
171.49998999	0.00000000	50.22145000	8.31077700
171.69998998	0.00000000	49.80930000	8.63681000
171.89998997	0.00000000	49.84621000	8.26771600
172.09998996	0.00000000	49.76624000	7.93553100
172.29998995	0.00000000	49.80315000	7.93553100
172.49998994	0.00000000	49.39099000	8.31077700
172.69998992	0.00000000	49.05881000	9.05511800
172.89998991	0.00000000	49.01575000	9.43036400
173.09998990	0.00000000	49.05881000	9.47342500
173.29998989	0.00000000	49.43405000	9.47342500
173.49998988	0.00000000	50.12918000	9.47342500
173.69998986	0.00000000	50.17839000	9.47342500
173.89998985	0.00000000	49.85236000	9.47342500
174.09998984	0.00000000	50.22145000	9.47342500
174.29998983	0.00000000	50.55364000	9.43036400
174.49998982	0.00000000	50.55364000	9.09817800
174.69998980	0.00000000	50.17839000	8.68602300
174.89998979	0.00000000	49.43405000	8.67987200
175.09998978	0.00000000	49.05881000	8.31077700
175.29998977	0.00000000	49.01575000	8.35998900
175.49998976	0.00000000	49.01575000	9.05511800
175.69998975	0.00000000	49.01575000	9.43036400
175.89998973	0.00000000	49.01575000	9.47342500
176.09998972	0.00000000	49.01575000	9.47342500
176.29998971	0.00000000	49.01575000	9.47342500
176.49998970	0.00000000	49.01575000	9.47342500
176.69998969	0.00000000	49.01575000	9.47342500
176.89998967	0.00000000	49.01575000	9.47342500
177.09998966	0.00000000	49.01575000	9.43036400
177.29998965	0.00000000	49.01575000	9.05511800
177.49998964	0.00000000	49.01575000	8.31077700
177.69998963	0.00000000	49.01575000	7.93553100
177.89998961	0.00000000	49.01575000	7.89247000
178.09998960	0.00000000	49.01575000	7.93553100
178.29998959	0.00000000	49.01575000	8.31077700
178.49998958	0.00000000	49.01575000	9.05511800
178.69998957	0.00000000	49.05881000	9.43036400
178.89998956	0.00000000	49.43405000	9.47342500
179.09998954	0.00000000	50.17839000	9.47342500
179.29998953	0.00000000	50.55364000	9.47342500
179.49998952	0.00000000	50.59670000	9.47342500
179.69998951	0.00000000	50.59670000	9.47342500
179.89998950	0.00000000	50.59670000	9.47342500
180.09998948	0.00000000	50.55364000	9.43036400
180.29998947	0.00000000	50.17839000	9.05511800
180.49998946	0.00000000	49.43405000	8.31077700
180.69998945	0.00000000	49.05881000	7.93553100
180.89998944	0.00000000	49.01575000	7.93553100
181.09998942	0.00000000	49.01575000	8.31077700
181.29998941	0.00000000	49.01575000	9.05511800
181.49998940	0.00000000	49.01575000	9.43036400
181.69998939	0.00000000	49.01575000	9.47342500
181.89998938	0.00000000	49.01575000	9.47342500
182.09998937	0.00000000	49.05881000	9.47342500
182.29998935	0.00000000	49.43405000	9.47342500
182.49998934	0.00000000	50.17839000	9.43036400
182.69998933	0.00000000	50.55364000	9.09817800
182.89998932	0.00000000	50.59670000	8.68602300
183.09998931	0.00000000	50.55364000	8.67987200
183.29998929	0.00000000	50.22145000	8.26771600
183.49998928	0.00000000	49.80930000	7.98474400
183.69998927	0.00000000	49.80315000	8.31077700
183.89998926	0.00000000	49.39099000	9.05511800
184.09998925	0.00000000	49.05881000	9.43036400
184.29998923	0.00000000	49.01575000	9.47342500
184.49998922	0.00000000	49.01575000	9.47342500
184.69998921	0.00000000	49.01575000	9.47342500
184.89998920	0.00000000	49.01575000	9.47342500
185.09998919	0.00000000	49.01575000	9.47342500
185.29998918	0.00000000	49.01575000	9.47342500
185.49998916	0.00000000	49.05881000	9.43036400
185.69998915	0.00000000	49.43405000	9.05511800
185.89998914	0.00000000	50.17839000	8.31077700
186.09998913	0.00000000	50.50443000	7.93553100
186.29998912	0.00000000	50.22145000	7.89247000
186.49998910	0.00000000	49.80930000	7.93553100
186.69998909	0.00000000	49.80315000	8.31077700
186.89998908	0.00000000	49.39099000	9.09817800
187.09998907	0.00000000	49.05881000	9.79945900
187.29998906	0.00000000	49.01575000	10.21161000
187.49998904	0.00000000	49.01575000	9.84867000
187.69998903	0.00000000	49.01575000	9.51648500
187.89998902	0.00000000	49.05881000	9.47342500
188.09998901	0.00000000	49.39099000	9.47342500
188.29998900	0.00000000	49.76009000	9.43036400
188.49998899	0.00000000	49.39099000	9.05511800
188.69998897	0.00000000	49.10802000	8.31077700
188.89998896	0.00000000	49.43405000	7.93553100
189.09998895	0.00000000	50.12918000	7.89247000
189.29998894	0.00000000	50.12918000	7.89247000
189.49998893	0.00000000	49.43405000	7.89247000
189.69998891	0.00000000	49.05881000	7.89247000
189.89998890	0.00000000	49.01575000	7.89247000
190.09998889	0.00000000	49.01575000	7.89247000
190.29998888	0.00000000	49.01575000	7.93553100
190.49998887	0.00000000	49.01575000	8.26771600
190.69998885	0.00000000	49.01575000	8.67987200
190.89998884	0.00000000	49.01575000	8.68602300
191.09998883	0.00000000	49.01575000	9.09817800
191.29998882	0.00000000	49.01575000	9.38115100
191.49998881	0.00000000	49.01575000	9.05511800
191.69998880	0.00000000	49.05881000	8.31077700
191.89998878	0.00000000	49.39099000	7.93553100
192.09998877	0.00000000	49.76009000	7.89247000
192.29998876	0.00000000	49.39099000	7.89247000
192.49998875	0.00000000	49.05881000	7.89247000
192.69998874	0.00000000	49.01575000	7.89247000
192.89998872	0.00000000	49.01575000	7.89247000
193.09998871	0.00000000	49.01575000	7.93553100
193.29998870	0.00000000	49.01575000	8.31077700
193.49998869	0.00000000	49.01575000	9.05511800
193.69998868	0.00000000	49.01575000	9.43036400
193.89998866	0.00000000	49.01575000	9.47342500
194.09998865	0.00000000	49.01575000	9.47342500
194.29998864	0.00000000	49.01575000	9.47342500
194.49998863	0.00000000	49.01575000	9.47342500
194.69998862	0.00000000	49.01575000	9.47342500
194.89998861	0.00000000	49.05881000	9.43036400
195.09998859	0.00000000	49.39099000	9.05511800
195.29998858	0.00000000	49.76009000	8.35998900
195.49998857	0.00000000	49.39099000	8.35998900
195.69998856	0.00000000	49.05881000	9.00590400
195.89998855	0.00000000	49.01575000	9.00590400
196.09998853	0.00000000	49.01575000	8.35998900
