Time	Channel A	Channel B	Channel C
(us)	(V)	(mV)	(mV)

-4.59999956	0.00000000	61.24508000	22.47785000
-4.39999957	0.00000000	60.91904000	22.19488000
-4.19999958	0.00000000	61.28814000	22.52091000
-3.99999959	0.00000000	61.62032000	23.21604000
-3.79999960	0.00000000	61.66338000	23.21604000
-3.59999962	0.00000000	61.66338000	22.52091000
-3.39999963	0.00000000	61.66338000	22.19488000
-3.19999964	0.00000000	61.66338000	22.47785000
-2.99999965	0.00000000	61.66338000	22.89001000
-2.79999966	0.00000000	61.66338000	22.89616000
-2.59999968	0.00000000	61.62032000	23.26525000
-2.39999969	0.00000000	61.28814000	23.21604000
-2.19999970	0.00000000	60.91904000	22.57013000
-1.99999971	0.00000000	61.28814000	22.57013000
-1.79999972	0.00000000	61.62032000	23.26525000
-1.59999973	0.00000000	61.66338000	23.59129000
-1.39999975	0.00000000	61.62032000	23.26525000
-1.19999976	0.00000000	61.28814000	22.57013000
-0.99999977	0.00000000	60.91904000	22.57013000
-0.79999978	0.00000000	61.28814000	23.26525000
-0.59999979	0.00000000	61.62032000	23.59129000
-0.39999981	0.15871060	61.62032000	23.26525000
-0.19999982	0.47736220	61.24508000	22.52091000
0.00000017	0.79601380	60.50073000	22.19488000
0.20000016	0.95533960	60.17470000	22.52091000
0.40000015	0.95533960	60.45767000	23.21604000
0.60000013	0.47736220	60.86983000	23.21604000
0.80000012	-0.31803640	60.87598000	22.52091000
1.00000011	-1.27399100	61.24508000	22.19488000
1.20000010	-2.22994600	61.24508000	22.52091000
1.40000009	-2.70792300	60.91904000	23.26525000
1.60000008	-2.70792300	61.28814000	23.64050000
1.80000006	-1.75196900	61.57111000	23.68356000
2.00000005	0.00000000	61.28814000	23.68356000
2.20000004	2.07062000	60.91904000	23.68356000
2.40000003	3.98191400	61.24508000	23.64050000
2.60000002	5.25652100	61.19586000	23.26525000
2.80000000	5.09719500	60.50073000	22.52091000
2.99999999	3.66326300	60.12549000	22.14567000
3.19999998	0.79601380	60.08243000	22.10261000
3.39999997	-2.54859700	60.12549000	22.14567000
3.59999996	-5.73449800	60.50073000	22.47785000
3.79999994	-7.64579200	61.19586000	22.84695000
3.99999993	-7.80511800	61.24508000	22.52091000
4.19999992	-5.89382400	60.91904000	22.61319000
4.39999991	-2.38927200	61.24508000	23.59129000
4.59999990	2.07062000	61.19586000	23.96038000
4.79999989	6.21247500	60.50073000	22.89616000
4.99999987	8.76107300	60.12549000	22.19488000
5.19999986	9.39837600	60.08243000	22.10261000
5.39999985	7.48646600	60.08243000	22.10261000
5.59999984	3.66326300	60.08243000	22.10261000
5.79999983	-1.11466500	60.08243000	22.10261000
5.99999981	-5.57517200	60.08243000	22.10261000
6.19999980	-8.60174700	60.12549000	22.14567000
6.39999979	-9.39837600	60.50073000	22.52091000
6.59999978	-7.96444400	61.19586000	23.21604000
6.79999977	-4.61921700	61.24508000	23.26525000
6.99999975	-0.31803640	60.91904000	22.89616000
7.19999974	3.82258900	61.28814000	22.93307000
7.39999973	6.69045300	61.57111000	22.85310000
7.59999972	7.80511800	61.24508000	22.89001000
7.79999971	6.84916400	60.50073000	22.47785000
7.99999970	4.30056600	60.12549000	22.14567000
8.19999968	1.11466500	60.08243000	22.10261000
8.39999967	-2.07062000	60.08243000	22.10261000
8.59999966	-4.30056600	60.08243000	22.10261000
8.79999965	-5.25652100	60.08243000	22.10261000
8.99999964	-4.77854300	60.12549000	22.10261000
9.19999962	-3.18590100	60.45767000	22.10261000
9.39999961	-1.27399100	60.82677000	22.14567000
9.59999960	0.63668800	60.50073000	22.52091000
9.79999959	1.91129400	60.50073000	23.21604000
9.99999958	2.54859700	60.86983000	23.21604000
10.19999956	2.38927200	60.83292000	22.52091000
10.39999955	1.75196900	60.86983000	22.14567000
10.59999954	0.79601380	60.50073000	22.14567000
10.79999953	0.00000000	60.50073000	22.47785000
10.99999952	-0.63668800	60.82677000	22.84695000
11.19999951	-0.95533960	60.45767000	22.47785000
11.39999949	-0.95533960	60.12549000	22.14567000
11.59999948	-0.79601380	60.08243000	22.10261000
11.79999947	-0.47736220	60.08243000	22.10261000
11.99999946	-0.15871060	60.08243000	22.10261000
12.19999945	-0.15871060	60.08243000	22.10261000
12.39999943	-0.15871060	60.08243000	22.10261000
12.59999942	0.00000000	60.08243000	22.10261000
12.79999941	0.00000000	60.08243000	22.10261000
12.99999940	0.00000000	60.08243000	22.10261000
13.19999939	0.00000000	60.08243000	22.10261000
13.39999937	0.00000000	60.08243000	22.10261000
13.59999936	0.00000000	60.08243000	22.10261000
13.79999935	0.00000000	60.08243000	22.14567000
13.99999934	-0.15871060	60.08243000	22.47785000
14.19999933	-0.15871060	60.08243000	22.84695000
14.39999932	-0.15871060	60.08243000	22.47785000
14.59999930	0.00000000	60.08243000	22.14567000
14.79999929	0.00000000	60.08243000	22.14567000
14.99999928	0.00000000	60.08243000	22.52091000
15.19999927	0.00000000	60.08243000	23.21604000
15.39999926	0.00000000	60.08243000	23.21604000
15.59999924	0.00000000	60.08243000	22.52091000
15.79999923	0.00000000	60.08243000	22.14567000
15.99999922	0.00000000	60.08243000	22.14567000
16.19999921	-0.15871060	60.08243000	22.47785000
16.39999920	-0.15871060	60.12549000	22.84695000
16.59999919	-0.15871060	60.50073000	22.52091000
16.79999917	-0.15871060	61.24508000	22.52091000
16.99999916	-0.15871060	61.66338000	22.89001000
17.19999915	0.00000000	62.08169000	22.85310000
17.39999914	0.00000000	62.77681000	22.93307000
17.59999913	0.00000000	62.77681000	22.89616000
17.79999911	0.00000000	62.03863000	23.26525000
17.99999910	0.00000000	61.24508000	23.26525000
18.19999909	0.00000000	60.03937000	22.93922000
18.39999908	0.00000000	58.50147000	23.35138000
18.59999907	0.00000000	56.92052000	23.96653000
18.79999905	0.00000000	55.43184000	24.00344000
18.99999904	0.00000000	54.77977000	22.93922000
19.19999903	0.00000000	56.26845000	22.57013000
19.39999902	0.00000000	59.33194000	22.84695000
19.59999901	0.00000000	62.50000000	22.47785000
19.79999900	0.00000000	66.40624000	22.19488000
19.99999898	0.00000000	70.17716000	22.47785000
20.19999897	0.00000000	72.09030000	22.84695000
20.39999896	0.00000000	71.62893000	22.47785000
20.59999895	0.00000000	68.13484000	22.14567000
20.79999894	0.00000000	61.95251000	22.10261000
20.99999892	0.00000000	54.96432000	22.10261000
21.19999891	0.00000000	47.94537000	22.10261000
21.39999890	0.00000000	42.21825000	22.10261000
21.59999889	0.00000000	39.60999000	22.10261000
21.79999888	0.00000000	41.65846000	22.10261000
21.99999886	0.00000000	49.00959000	22.10261000
22.19999885	0.00000000	60.26082000	22.10261000
22.39999884	0.00000000	73.01919000	22.10261000
22.59999883	0.00000000	84.92863000	22.10261000
22.79999882	0.00000000	92.14443000	22.10261000
22.99999881	0.00000000	92.09522000	22.14567000
23.19999879	0.00000000	84.36884000	22.52091000
23.39999878	0.00000000	70.41707000	23.30832000
23.59999877	0.00000000	53.34030000	24.01575000
23.79999876	0.00000000	35.98671000	24.42790000
23.99999875	0.00000000	22.58243000	24.01575000
24.19999873	0.00000000	17.59966000	23.30832000
24.39999872	0.00000000	22.25640000	22.47785000
24.59999871	0.00000000	35.88213000	21.68430000
24.79999870	0.00000000	56.36073000	20.47859000
24.99999869	0.00000000	79.10925000	18.98991000
25.19999867	0.00000000	98.38213000	17.83341000
25.39999866	0.00000000	109.54720000	17.50123000
25.59999865	-0.15871060	109.49800000	18.29478000
25.79999864	0.00000000	97.91460000	20.66314000
25.99999863	0.00000000	77.44217000	24.10187000
26.19999862	0.00000000	52.68823000	28.00197000
26.39999860	0.00000000	29.14001000	31.44069000
26.59999859	0.00000000	12.20472000	33.71678000
26.79999858	0.00000000	6.43454700	33.67372000
26.99999857	0.00000000	13.32431000	30.93627000
27.19999856	0.00000000	30.67790000	25.82431000
27.39999854	0.00000000	54.26919000	18.47933000
27.59999853	0.00000000	78.98006000	10.44537000
27.79999852	0.00000000	99.07726000	4.31225400
27.99999851	0.00000000	109.92250000	1.61786400
28.19999850	0.00000000	109.59030000	3.23572800
28.39999848	0.00000000	98.38213000	9.46727400
28.59999847	0.00000000	79.15845000	19.54355000
28.79999846	0.00000000	56.73597000	31.48991000
28.99999845	0.00000000	36.58341000	42.68578000
29.19999844	0.00000000	22.21334000	50.35679000
29.39999843	0.00000000	16.43701000	52.58366000
29.59999841	0.00000000	20.62623000	47.89616000
29.79999840	0.00000000	33.28617000	36.74335000
29.99999839	0.00000000	50.68897000	22.05955000
30.19999838	0.00000000	68.88533000	6.95743000
30.39999837	0.00000000	84.36884000	-5.77017700
30.59999835	0.00000000	93.67617000	-13.05979000
30.79999834	0.00000000	95.34940000	-13.01673000
30.99999833	0.00000000	89.95448000	-5.25959600
31.19999832	0.00000000	79.10925000	8.99975300
31.39999831	0.00000000	64.82529000	26.37795000
31.59999829	0.00000000	50.54749000	43.01181000
31.79999828	0.00000000	39.65305000	55.78863000
31.99999827	0.00000000	33.79675000	61.92175000
32.19999826	0.00000000	33.79675000	59.97170000
32.39999825	0.00000000	39.52387000	49.88927000
32.59999824	0.00000000	49.15108000	33.76599000
32.79999822	0.00000000	59.99631000	15.55733000
32.99999821	0.00000000	70.09104000	-0.66437010
33.19999820	0.00000000	77.44217000	-12.26624000
33.39999819	0.00000000	80.51180000	-16.12943000
33.59999818	0.00000000	78.64788000	-11.94636000
33.79999816	0.00000000	72.50861000	-1.11958700
33.99999815	0.00000000	64.45004000	14.34547000
34.19999814	0.00000000	56.26845000	30.93627000
34.39999813	0.00000000	49.74778000	45.24483000
34.59999812	0.00000000	46.26599000	54.16461000
34.79999810	0.00000000	47.01033000	56.11466000
34.99999809	0.00000000	51.15034000	51.09497000
35.19999808	0.00000000	56.92052000	39.89911000
35.39999807	0.00000000	62.73376000	25.26452000
35.59999806	0.00000000	67.39050000	10.62992000
35.79999805	0.00000000	70.04798000	-0.56594490
35.99999803	0.00000000	69.67273000	-5.63484200
36.19999802	0.00000000	66.27091000	-4.09694900
36.39999801	0.00000000	61.66338000	3.56791300
36.59999800	0.00000000	57.01279000	15.45891000
36.79999799	0.00000000	53.14960000	27.77436000
36.99999797	0.00000000	51.28568000	37.81373000
37.19999796	0.00000000	52.03617000	43.15945000
37.39999795	0.00000000	55.47490000	42.03986000
37.59999794	0.00000000	60.03937000	35.20546000
37.79999793	0.00000000	64.31471000	25.26452000
37.99999791	0.00000000	67.43970000	15.27436000
38.19999790	0.00000000	68.97145000	7.97244000
38.39999789	0.00000000	68.55315000	5.27805100
38.59999788	0.00000000	65.89567000	7.97244000
38.79999787	0.00000000	62.03863000	15.22515000
38.99999786	0.00000000	58.12622000	24.79700000
39.19999784	0.00000000	54.22613000	33.58760000
39.39999783	0.00000000	51.19340000	38.92716000
39.59999782	0.00000000	50.03691000	38.92716000
39.79999781	0.00000000	51.15034000	33.63066000
39.99999780	0.00000000	53.85088000	25.17224000
40.19999778	0.00000000	57.38804000	15.92027000
40.39999777	0.00000000	61.62032000	7.88631800
40.59999776	0.00000000	65.47736000	3.70324800
40.79999775	0.00000000	67.85802000	4.85974400
40.99999774	0.00000000	69.06373000	10.99901000
41.19999772	0.00000000	68.97761000	20.57087000
41.39999771	0.00000000	67.06447000	30.51796000
41.59999770	0.00000000	63.57652000	37.85679000
41.79999769	0.00000000	59.70718000	40.96949000
41.99999768	0.00000000	55.85014000	39.48080000
42.19999767	0.00000000	53.14960000	34.04897000
42.39999765	0.00000000	52.31299000	25.95964000
42.59999764	0.00000000	52.68823000	16.75689000
42.79999763	0.00000000	54.22613000	9.51033400
42.99999762	0.00000000	56.54527000	6.35457700
43.19999761	0.00000000	58.87672000	7.41879900
43.39999759	0.00000000	61.24508000	11.64493000
43.59999758	0.00000000	63.15207000	17.78420000
43.79999757	0.00000000	64.31471000	24.33563000
43.99999756	0.00000000	64.35777000	29.35531000
44.19999755	0.00000000	63.61958000	32.14198000
44.39999753	0.00000000	62.86909000	32.51107000
44.59999752	0.00000000	62.08169000	30.60408000
44.79999751	0.00000000	61.70644000	26.79626000
44.99999750	0.00000000	61.62032000	22.57013000
45.19999749	0.00000000	61.19586000	19.08218000
45.39999748	0.00000000	59.99015000	16.71383000
45.59999746	0.00000000	58.03395000	15.92027000
45.79999745	0.00000000	55.33957000	16.29552000
45.99999744	0.00000000	52.64517000	17.87647000
46.19999743	0.00000000	50.73204000	20.57087000
46.39999742	0.00000000	49.98769000	23.59129000
46.59999740	0.00000000	51.24261000	25.91043000
46.79999739	0.00000000	54.77977000	26.74705000
46.99999738	0.00000000	60.54995000	26.74705000
47.19999737	0.00000000	67.10752000	25.95964000
47.39999736	0.00000000	72.46555000	24.05881000
47.59999734	0.00000000	75.57825000	22.10261000
47.79999733	0.00000000	75.11687000	20.10950000
47.99999732	0.00000000	71.25368000	17.83341000
48.19999731	0.00000000	64.22859000	16.38164000
48.39999730	0.00000000	55.38263000	16.75689000
48.59999729	0.00000000	46.91806000	19.03297000
48.79999727	0.00000000	41.19094000	22.05955000
48.99999726	0.00000000	40.03444000	24.84621000
49.19999725	0.00000000	43.89148000	27.17150000
49.39999724	0.00000000	51.61786000	29.07234000
49.59999723	0.00000000	61.62032000	29.40452000
49.79999721	0.00000000	71.25368000	27.86663000
49.99999720	0.00000000	77.81741000	24.79700000
50.19999719	0.00000000	80.13657000	20.94611000
50.39999718	0.00000000	77.39911000	17.45817000
50.59999717	0.00000000	70.09104000	14.72072000
50.79999715	0.00000000	60.13164000	13.27510000
50.99999714	0.00000000	50.54749000	14.06865000
51.19999713	0.00000000	44.26673000	17.45817000
51.39999712	0.00000000	41.97834000	21.64124000
51.59999711	0.00000000	43.94069000	25.21530000
51.79999710	0.00000000	50.82431000	28.32800000
51.99999708	0.00000000	59.57185000	30.56102000
52.19999707	0.00000000	67.34743000	30.56102000
52.39999706	0.00000000	72.74237000	28.28494000
52.59999705	0.00000000	74.28026000	24.84621000
52.79999704	0.00000000	71.57972000	20.94611000
52.99999702	-0.15871060	65.47736000	17.54429000
53.19999701	0.00000000	57.80634000	15.55733000
53.39999700	0.00000000	51.28568000	15.54503000
53.59999699	0.00000000	47.38558000	16.67077000
53.79999698	0.00000000	47.01033000	19.03297000
53.99999696	0.00000000	50.07997000	22.05955000
54.19999695	0.00000000	55.85014000	24.75394000
54.39999694	0.00000000	62.73376000	26.28568000
54.59999693	0.00000000	68.46087000	26.28568000
54.79999692	0.00000000	71.20448000	24.79700000
54.99999691	0.00000000	70.46629000	22.57013000
55.19999689	0.00000000	67.01525000	21.03838000
55.39999688	0.00000000	61.62032000	20.62008000
55.59999687	0.00000000	55.85014000	20.98917000
55.79999686	0.00000000	51.24261000	22.15182000
55.99999685	0.00000000	48.96653000	23.68356000
56.19999683	0.00000000	50.07997000	25.17224000
56.39999682	0.00000000	53.85088000	25.91043000
56.59999681	0.00000000	58.50147000	25.08612000
56.79999680	0.00000000	63.15822000	22.79773000
56.99999679	0.00000000	67.01525000	19.36516000
57.19999677	0.00000000	68.88533000	16.33858000
57.39999676	0.00000000	68.17789000	14.76378000
57.59999675	0.00000000	65.11441000	14.80684000
57.79999674	0.00000000	61.28814000	16.76304000
57.99999673	0.00000000	57.38804000	20.66314000
58.19999672	0.00000000	54.35531000	25.63976000
58.39999670	0.00000000	53.14960000	30.60408000
58.59999669	0.00000000	53.89394000	33.63066000
58.79999668	0.00000000	55.80708000	33.63066000
58.99999667	0.00000000	58.50147000	30.56102000
59.19999666	0.00000000	61.19586000	25.17224000
59.39999664	0.00000000	63.10900000	18.98991000
59.59999663	0.00000000	63.89641000	13.18282000
59.79999662	0.00000000	63.15207000	8.99975300
59.99999661	0.00000000	61.66338000	7.88631800
60.19999660	0.00000000	60.08243000	10.58071000
60.39999658	0.00000000	58.54454000	16.38779000
60.59999657	0.00000000	57.43110000	24.05881000
60.79999656	0.00000000	57.38804000	31.67446000
60.99999655	0.00000000	58.12622000	36.31890000
61.19999654	0.00000000	58.91978000	37.20472000
61.39999653	0.00000000	60.08243000	35.20546000
61.59999651	0.00000000	61.19586000	30.13656000
61.79999650	0.00000000	61.57111000	22.47785000
61.99999649	0.00000000	61.19586000	14.80684000
62.19999648	0.00000000	60.03937000	8.95669300
62.39999647	0.00000000	58.54454000	5.93626900
62.59999645	0.00000000	57.38804000	6.72367100
62.79999644	0.00000000	57.01279000	11.69414000
62.99999643	0.00000000	57.38804000	18.94685000
63.19999642	0.00000000	58.54454000	26.32874000
63.39999641	0.00000000	60.08243000	32.51107000
63.59999639	0.00000000	61.62032000	36.36811000
63.79999638	0.00000000	62.77681000	36.74335000
63.99999637	0.00000000	63.15207000	33.71678000
64.19999636	0.00000000	62.77681000	28.32800000
64.39999635	0.00000000	61.57111000	22.10261000
64.59999634	0.00000000	59.70718000	15.92027000
64.79999632	0.00000000	57.75713000	10.95595000
64.99999631	0.00000000	56.63754000	8.99975300
65.19999630	0.00000000	56.22539000	10.07013000
65.39999629	0.00000000	57.01279000	13.13976000
65.59999628	0.00000000	58.45841000	17.40895000
65.79999626	0.00000000	59.66412000	22.05955000
65.99999625	0.00000000	60.45767000	26.32874000
66.19999624	0.00000000	61.19586000	29.44759000
66.39999623	0.00000000	61.15280000	31.06545000
66.59999622	0.00000000	60.03937000	31.44069000
66.79999620	0.00000000	58.50147000	30.64714000
66.99999619	0.00000000	57.01279000	28.32800000
67.19999618	0.00000000	56.26845000	25.26452000
67.39999617	0.00000000	57.05585000	22.10261000
67.59999616	0.00000000	58.91978000	18.94685000
67.79999615	0.00000000	61.24508000	15.83415000
67.99999613	0.00000000	63.15207000	13.18282000
68.19999612	0.00000000	64.31471000	12.02018000
68.39999611	0.00000000	64.27164000	12.76452000
68.59999610	0.00000000	62.69069000	14.72072000
68.79999609	0.00000000	59.61491000	17.87647000
68.99999607	0.00000000	55.75787000	22.14567000
69.19999606	0.00000000	52.31299000	26.79626000
69.39999605	0.00000000	50.03691000	31.02239000
69.59999604	0.00000000	50.03691000	33.67372000
69.79999603	0.00000000	52.35605000	33.67372000
69.99999601	0.00000000	56.22539000	30.97933000
70.19999600	0.00000000	61.28814000	26.37795000
70.39999599	0.00000000	66.27091000	20.94611000
70.59999598	0.00000000	70.13410000	15.92027000
70.79999597	0.00000000	71.62893000	12.02018000
70.99999596	0.00000000	70.09104000	10.11319000
71.19999594	0.00000000	65.85260000	10.53765000
71.39999593	0.00000000	60.08243000	13.65034000
71.59999592	0.00000000	54.26919000	18.98991000
71.79999591	0.00000000	49.61245000	24.71087000
71.99999590	0.00000000	46.91806000	28.98007000
72.19999588	0.00000000	46.91806000	30.97933000
72.39999587	0.00000000	49.66166000	31.02239000
72.59999586	0.00000000	54.68750000	29.44759000
72.79999585	0.00000000	61.20201000	26.37795000
72.99999584	0.00000000	66.97219000	22.57013000
73.19999582	0.00000000	70.46629000	19.50049000
73.39999581	0.00000000	71.29675000	17.91953000
73.59999580	0.00000000	69.34670000	17.87647000
73.79999579	0.00000000	65.52657000	18.98991000
73.99999578	0.00000000	60.45767000	20.47859000
74.19999577	0.00000000	55.51796000	21.64124000
74.39999575	0.00000000	51.99311000	22.05955000
74.59999574	0.00000000	50.77510000	22.05955000
74.79999573	0.00000000	51.15034000	21.64124000
74.99999572	0.00000000	53.10654000	20.52780000
75.19999571	0.00000000	56.54527000	19.45743000
75.39999569	0.00000000	59.99015000	19.50049000
75.59999568	0.00000000	62.73376000	21.03838000
75.79999567	0.00000000	64.27164000	23.68356000
75.99999566	0.00000000	64.31471000	26.37795000
76.19999565	0.00000000	63.20127000	28.28494000
76.39999563	0.00000000	61.66338000	29.07234000
76.59999562	0.00000000	60.12549000	28.24188000
76.79999561	0.00000000	58.96899000	25.91043000
76.99999560	0.00000000	58.54454000	22.01033000
77.19999559	0.00000000	58.50147000	17.45817000
77.39999558	0.00000000	58.50147000	13.60113000
77.59999556	0.00000000	58.50147000	11.69414000
77.79999555	0.00000000	58.45841000	12.06939000
77.99999554	0.00000000	58.08316000	14.76378000
78.19999553	0.00000000	57.33883000	18.98991000
78.39999552	0.00000000	56.96358000	23.68356000
78.59999550	0.00000000	56.96358000	28.28494000
78.79999549	0.00000000	57.38804000	31.71752000
78.99999548	0.00000000	58.54454000	32.51107000
79.19999547	0.00000000	60.12549000	31.02239000
79.39999546	0.00000000	62.03863000	27.86663000
79.59999544	0.00000000	63.93946000	23.26525000
79.79999543	0.00000000	64.64690000	18.25172000
79.99999542	0.00000000	63.89641000	14.43159000
80.19999541	0.00000000	61.62032000	12.44464000
80.39999540	0.00000000	58.91978000	12.80758000
80.59999539	0.00000000	56.54527000	14.67150000
80.79999537	0.00000000	54.26919000	17.41511000
80.99999536	0.00000000	53.14960000	20.52780000
81.19999535	0.00000000	53.89394000	23.64050000
81.39999534	0.00000000	55.80708000	26.37795000
81.59999533	0.00000000	58.50147000	28.28494000
81.79999531	0.00000000	61.19586000	29.07234000
81.99999530	0.00000000	63.15207000	28.32800000
82.19999529	0.00000000	64.31471000	26.83932000
82.39999528	0.00000000	64.27164000	25.21530000
82.59999527	0.00000000	62.77681000	23.22219000
82.79999525	0.00000000	60.50073000	20.52780000
82.99999524	0.00000000	58.54454000	17.83341000
83.19999523	0.00000000	56.96358000	15.87721000
83.39999522	0.00000000	55.85014000	14.72072000
83.59999521	0.00000000	55.80708000	14.76378000
83.79999520	0.00000000	56.58833000	16.29552000
83.99999518	0.00000000	57.71407000	18.98991000
84.19999517	0.00000000	59.24582000	22.10261000
84.39999516	0.00000000	59.99015000	25.26452000
84.59999515	0.00000000	60.08243000	28.32800000
84.79999514	0.00000000	60.08243000	30.56102000
84.99999512	0.00000000	60.12549000	30.51181000
85.19999511	0.00000000	60.45767000	27.90969000
85.39999510	0.00000000	60.82677000	24.05881000
85.59999509	0.00000000	60.45767000	20.15256000
85.79999508	0.00000000	60.12549000	16.25246000
85.99999506	0.00000000	60.08243000	13.22589000
86.19999505	0.00000000	60.03937000	12.06939000
86.39999504	0.00000000	59.61491000	13.22589000
86.59999503	0.00000000	58.50147000	16.29552000
86.79999502	0.00000000	57.33883000	20.57087000
86.99999501	0.00000000	56.58833000	25.17224000
87.19999499	0.00000000	56.17618000	29.02928000
87.39999498	0.00000000	56.58833000	30.93627000
87.59999497	0.00000000	57.33883000	30.56102000
87.79999496	0.00000000	58.54454000	27.86663000
87.99999495	0.00000000	60.03937000	23.64050000
88.19999493	0.00000000	61.19586000	18.98991000
88.39999492	0.00000000	61.57111000	14.80684000
88.59999491	0.00000000	61.19586000	12.53076000
88.79999490	0.00000000	60.08243000	13.26895000
88.99999489	0.00000000	58.91978000	16.29552000
89.19999487	0.00000000	58.12622000	20.52780000
89.39999486	0.00000000	57.33883000	24.79700000
89.59999485	0.00000000	56.96358000	28.24188000
89.79999484	0.00000000	56.96358000	30.14272000
89.99999483	0.00000000	57.38804000	29.39837000
90.19999482	0.00000000	58.50147000	26.75320000
90.39999480	0.00000000	59.61491000	23.21604000
90.59999479	0.00000000	60.03937000	18.94685000
90.79999478	0.00000000	60.08243000	14.80684000
90.99999477	0.00000000	60.08243000	12.53076000
91.19999476	0.00000000	60.03937000	13.26895000
91.39999474	0.00000000	59.70718000	16.33858000
91.59999473	0.00000000	59.33809000	20.94611000
91.79999472	0.00000000	59.70718000	25.95964000
91.99999471	0.00000000	60.03937000	29.73056000
92.19999470	0.00000000	60.08243000	31.29921000
92.39999468	0.00000000	60.03937000	29.77362000
92.59999467	0.00000000	59.61491000	26.37795000
92.79999466	0.00000000	58.50147000	22.10261000
92.99999465	0.00000000	57.33883000	17.87647000
93.19999464	0.00000000	56.54527000	14.80684000
93.39999463	0.00000000	55.80708000	13.65034000
93.59999461	0.00000000	55.85014000	14.80684000
93.79999460	0.00000000	56.96358000	17.87647000
93.99999459	0.00000000	58.54454000	22.10261000
94.19999458	0.00000000	60.50073000	26.28568000
94.39999457	0.00000000	62.77681000	28.98007000
94.59999455	0.00000000	64.31471000	29.40452000
94.79999454	0.00000000	64.68996000	27.86663000
94.99999453	0.00000000	63.89641000	24.75394000
95.19999452	0.00000000	61.57111000	20.57087000
95.39999451	0.00000000	58.50147000	16.76304000
95.59999449	0.00000000	55.38263000	14.80684000
95.79999448	0.00000000	52.68823000	14.76378000
95.99999447	0.00000000	51.15034000	16.29552000
96.19999446	0.00000000	51.19340000	18.98991000
96.39999445	0.00000000	53.10654000	22.05955000
96.59999444	0.00000000	56.58833000	24.79700000
96.79999442	0.00000000	60.45767000	26.70398000
96.99999441	0.00000000	64.31471000	27.39911000
97.19999440	0.00000000	66.97219000	25.91043000
97.39999439	0.00000000	67.39050000	22.93922000
97.59999438	0.00000000	65.89567000	20.61393000
97.79999436	0.00000000	63.15207000	19.03912000
97.99999435	0.00000000	59.66412000	18.25172000
98.19999434	0.00000000	55.80708000	18.61466000
98.39999433	0.00000000	52.68823000	19.32210000
98.59999432	0.00000000	50.73204000	20.15256000
98.79999430	0.00000000	49.98769000	20.90305000
98.99999429	0.00000000	51.19340000	21.72736000
99.19999428	0.00000000	54.22613000	22.43479000
99.39999427	0.00000000	58.08316000	22.84695000
99.59999426	0.00000000	61.57111000	22.47785000
99.79999425	0.00000000	64.31471000	22.19488000
99.99999423	0.00000000	65.85260000	22.52091000
100.19999422	0.00000000	65.85260000	23.26525000
100.39999421	0.00000000	64.31471000	23.59129000
100.59999420	0.00000000	61.62032000	23.26525000
100.79999419	0.00000000	58.54454000	22.47785000
100.99999417	0.00000000	55.80708000	21.68430000
101.19999416	0.00000000	53.85088000	20.47859000
101.39999415	0.00000000	52.64517000	18.98991000
101.59999414	0.00000000	52.31299000	17.83341000
101.79999413	0.00000000	53.10654000	17.50123000
101.99999411	0.00000000	55.38263000	18.29478000
102.19999410	0.00000000	58.08316000	20.61393000
102.39999409	0.00000000	60.41461000	23.64050000
102.59999408	0.00000000	62.35851000	26.32874000
102.79999407	0.00000000	63.15207000	27.86663000
102.99999406	0.00000000	63.20127000	27.90969000
103.19999404	0.00000000	62.73376000	26.75320000
103.39999403	0.00000000	61.19586000	24.75394000
103.59999402	0.00000000	58.91978000	21.68430000
103.79999401	0.00000000	56.96358000	18.25172000
103.99999400	0.00000000	55.38263000	16.01255000
104.19999398	0.00000000	54.26919000	15.50812000
104.39999397	0.00000000	54.26919000	16.66462000
104.59999396	0.00000000	55.43184000	18.25172000
104.79999395	0.00000000	57.29576000	20.98917000
104.99999394	0.00000000	59.24582000	24.33563000
105.19999392	0.00000000	60.41461000	26.28568000
105.39999391	0.00000000	61.24508000	26.74705000
105.59999390	0.00000000	61.57111000	26.32874000
105.79999389	0.00000000	61.19586000	24.75394000
105.99999388	0.00000000	60.08243000	22.15182000
106.19999387	0.00000000	58.91978000	19.82652000
106.39999385	0.00000000	58.08316000	18.61466000
106.59999384	0.00000000	56.96358000	17.83341000
106.79999383	0.00000000	56.26845000	17.91953000
106.99999382	0.00000000	57.01279000	19.40822000
107.19999381	0.00000000	58.45841000	21.64124000
107.39999379	0.00000000	59.61491000	23.21604000
107.59999378	0.00000000	60.03937000	24.05881000
107.79999377	0.00000000	60.03937000	24.79700000
107.99999376	0.00000000	59.61491000	24.71087000
108.19999375	0.00000000	58.50147000	23.22219000
108.39999374	0.00000000	57.33883000	20.94611000
108.59999372	0.00000000	56.58833000	19.08218000
108.79999371	0.00000000	56.17618000	18.29478000
108.99999370	0.00000000	56.58833000	19.03912000
109.19999369	0.00000000	57.29576000	20.47859000
109.39999368	0.00000000	58.12622000	21.68430000
109.59999366	0.00000000	58.87672000	22.52091000
109.79999365	0.00000000	59.66412000	23.68356000
109.99999364	0.00000000	60.03937000	24.75394000
110.19999363	0.00000000	60.03937000	24.75394000
110.39999362	0.00000000	59.66412000	23.64050000
110.59999360	0.00000000	58.87672000	22.10261000
110.79999359	0.00000000	58.12622000	20.57087000
110.99999358	0.00000000	57.33883000	19.41437000
111.19999357	0.00000000	56.96358000	18.98991000
111.39999356	0.00000000	56.92052000	18.94685000
111.59999355	0.00000000	56.96358000	18.98991000
111.79999353	0.00000000	57.33883000	19.41437000
111.99999352	0.00000000	58.08316000	20.57087000
112.19999351	0.00000000	58.50147000	22.05955000
112.39999350	0.00000000	58.87672000	23.21604000
112.59999349	0.00000000	59.24582000	23.59129000
112.79999347	0.00000000	58.87672000	23.26525000
112.99999346	0.00000000	58.54454000	22.52091000
113.19999345	0.00000000	58.50147000	22.14567000
113.39999344	0.00000000	58.45841000	22.05955000
113.59999343	0.00000000	58.08316000	21.68430000
113.79999341	0.00000000	57.38804000	20.94611000
113.99999340	0.00000000	57.38804000	20.57087000
114.19999339	0.00000000	58.08316000	20.52780000
114.39999338	0.00000000	58.45841000	20.52780000
114.59999337	0.00000000	58.50147000	20.48474000
114.79999336	0.00000000	58.50147000	20.10950000
114.99999334	0.00000000	58.54454000	19.41437000
115.19999333	0.00000000	58.87672000	19.41437000
115.39999332	0.00000000	59.24582000	20.15256000
115.59999331	0.00000000	58.87672000	20.90305000
115.79999330	0.00000000	58.54454000	21.72736000
115.99999328	0.00000000	58.50147000	22.47785000
116.19999327	0.00000000	58.45841000	23.26525000
116.39999326	0.00000000	58.08316000	23.64050000
116.59999325	0.00000000	57.33883000	23.64050000
116.79999324	0.00000000	57.01279000	23.21604000
116.99999322	0.00000000	57.33883000	22.10261000
117.19999321	0.00000000	58.08316000	20.98917000
117.39999320	0.00000000	58.50147000	20.52780000
117.59999319	0.00000000	58.91978000	20.10950000
117.79999318	0.00000000	59.66412000	19.36516000
117.99999317	0.00000000	59.99015000	19.03912000
118.19999315	0.00000000	59.66412000	19.41437000
118.39999314	0.00000000	58.87672000	20.52780000
118.59999313	0.00000000	58.12622000	21.68430000
118.79999312	0.00000000	57.29576000	22.47785000
118.99999311	0.00000000	56.54527000	23.26525000
119.19999309	0.00000000	55.75787000	23.64050000
119.39999308	0.00000000	55.43184000	23.64050000
119.59999307	0.00000000	55.80708000	23.26525000
119.79999306	0.00000000	56.96358000	22.52091000
119.99999305	0.00000000	58.45841000	22.10261000
120.19999303	0.00000000	59.66412000	21.68430000
120.39999302	0.00000000	60.45767000	20.94611000
120.59999301	0.00000000	61.19586000	20.57087000
120.79999300	0.00000000	61.15280000	20.52780000
120.99999299	0.00000000	60.08243000	20.52780000
121.19999298	0.00000000	58.91978000	20.57087000
121.39999296	0.00000000	58.08316000	20.94611000
121.59999295	0.00000000	56.92052000	21.68430000
121.79999294	0.00000000	55.80708000	22.05955000
121.99999293	0.00000000	55.38263000	22.10261000
122.19999292	0.00000000	55.38263000	22.10261000
122.39999290	0.00000000	55.80708000	22.10261000
122.59999289	0.00000000	56.92052000	22.10261000
122.79999288	0.00000000	58.08316000	22.10261000
122.99999287	0.00000000	58.87672000	22.10261000
123.19999286	0.00000000	59.70718000	22.10261000
123.39999284	0.00000000	60.41461000	22.05955000
123.59999283	0.00000000	60.82677000	21.68430000
123.79999282	0.00000000	60.41461000	20.94611000
123.99999281	0.00000000	59.70718000	20.57087000
124.19999280	0.00000000	58.87672000	20.52780000
124.39999279	0.00000000	58.12622000	20.52780000
124.59999277	0.00000000	57.29576000	20.52780000
124.79999276	0.00000000	56.54527000	20.57087000
124.99999275	0.00000000	55.80708000	20.94611000
125.19999274	0.00000000	55.80708000	21.72736000
125.39999273	0.00000000	56.54527000	22.47785000
125.59999271	0.00000000	57.29576000	23.26525000
125.79999270	0.00000000	58.12622000	23.59129000
125.99999269	0.00000000	58.87672000	23.26525000
126.19999268	0.00000000	59.66412000	22.52091000
126.39999267	0.00000000	60.03937000	22.14567000
126.59999265	0.00000000	60.03937000	22.10261000
126.79999264	0.00000000	59.66412000	22.01033000
126.99999263	0.00000000	58.87672000	21.26599000
127.19999262	0.00000000	58.08316000	19.82652000
127.39999261	0.00000000	56.92052000	19.45743000
127.59999260	0.00000000	55.80708000	20.10950000
127.79999258	0.00000000	55.38263000	20.48474000
127.99999257	0.00000000	55.38263000	20.52780000
128.19999256	0.00000000	55.80708000	20.57087000
128.39999255	0.00000000	56.96358000	20.94611000
128.59999254	0.00000000	58.45841000	21.68430000
128.79999252	0.00000000	59.61491000	22.01033000
128.99999251	0.00000000	60.03937000	21.68430000
129.19999250	0.00000000	60.03937000	20.94611000
129.39999249	0.00000000	59.61491000	20.57087000
129.59999248	0.00000000	58.45841000	20.52780000
129.79999246	0.00000000	56.96358000	20.52780000
129.99999245	0.00000000	55.80708000	20.52780000
130.19999244	0.00000000	55.43184000	20.57087000
130.39999243	0.00000000	55.75787000	20.94611000
130.59999242	0.00000000	56.54527000	21.68430000
130.79999241	0.00000000	57.29576000	22.05955000
130.99999239	0.00000000	58.12622000	22.10261000
131.19999238	0.00000000	58.87672000	22.05955000
131.39999237	0.00000000	59.61491000	21.68430000
131.59999236	0.00000000	59.61491000	20.94611000
131.79999235	0.00000000	58.87672000	20.57087000
131.99999233	0.00000000	58.12622000	20.52780000
132.19999232	0.00000000	57.33883000	20.52780000
132.39999231	0.00000000	56.96358000	20.52780000
132.59999230	0.00000000	56.92052000	20.52780000
132.79999229	0.00000000	56.92052000	20.57087000
132.99999227	0.00000000	56.96358000	20.98917000
133.19999226	0.00000000	57.33883000	22.10261000
133.39999225	0.00000000	58.03395000	23.21604000
133.59999224	0.00000000	58.08316000	23.59129000
133.79999223	0.00000000	57.75713000	23.26525000
133.99999222	0.00000000	58.12622000	22.47785000
134.19999220	0.00000000	58.45841000	21.72736000
134.39999219	0.00000000	58.50147000	20.90305000
134.59999218	0.00000000	58.50147000	20.15256000
134.79999217	0.00000000	58.50147000	19.41437000
134.99999216	0.00000000	58.50147000	19.41437000
135.19999214	0.00000000	58.50147000	20.10950000
135.39999213	0.00000000	58.50147000	20.52780000
135.59999212	0.00000000	58.45841000	20.94611000
135.79999211	0.00000000	58.08316000	21.68430000
135.99999210	0.00000000	57.33883000	22.05955000
136.19999208	0.00000000	56.96358000	22.10261000
136.39999207	0.00000000	56.92052000	22.14567000
136.59999206	0.00000000	56.92052000	22.47785000
136.79999205	0.00000000	56.96358000	22.79773000
136.99999204	0.00000000	57.33883000	22.05955000
137.19999203	0.00000000	58.12622000	20.98917000
137.39999201	0.00000000	58.87672000	20.57087000
137.59999200	0.00000000	59.66412000	20.48474000
137.79999199	0.00000000	59.99015000	20.10950000
137.99999198	0.00000000	59.66412000	19.41437000
138.19999197	0.00000000	58.87672000	19.41437000
138.39999195	0.00000000	58.12622000	20.10950000
138.59999194	0.00000000	57.33883000	20.52780000
138.79999193	0.00000000	56.96358000	20.94611000
138.99999192	0.00000000	56.92052000	21.68430000
139.19999191	0.00000000	56.92052000	22.05955000
139.39999189	0.00000000	56.96358000	22.10261000
139.59999188	0.00000000	57.33883000	22.10261000
139.79999187	0.00000000	58.08316000	22.10261000
139.99999186	0.00000000	58.45841000	22.05955000
140.19999185	0.00000000	58.50147000	21.68430000
140.39999184	0.00000000	58.50147000	20.94611000
140.59999182	0.00000000	58.45841000	20.57087000
140.79999181	0.00000000	58.08316000	20.48474000
140.99999180	0.00000000	57.33883000	20.10950000
141.19999179	0.00000000	56.96358000	19.41437000
141.39999178	0.00000000	56.92052000	19.45743000
141.59999176	0.00000000	56.96358000	20.52780000
141.79999175	0.00000000	57.33883000	21.68430000
141.99999174	0.00000000	58.08316000	22.47785000
142.19999173	0.00000000	58.45841000	23.21604000
142.39999172	0.00000000	58.50147000	23.21604000
142.59999170	0.00000000	58.50147000	22.52091000
142.79999169	0.00000000	58.45841000	22.10261000
142.99999168	0.00000000	58.08316000	21.64124000
143.19999167	0.00000000	57.33883000	20.52780000
143.39999166	0.00000000	56.96358000	19.41437000
143.59999165	0.00000000	56.92052000	19.03912000
143.79999163	0.00000000	56.92052000	19.36516000
143.99999162	0.00000000	56.96358000	20.15256000
144.19999161	0.00000000	57.33883000	20.90305000
144.39999160	0.00000000	58.08316000	21.68430000
144.59999159	0.00000000	58.45841000	22.05955000
144.79999157	0.00000000	58.50147000	22.10261000
144.99999156	0.00000000	58.45841000	22.10261000
145.19999155	0.00000000	58.08316000	22.05955000
145.39999154	0.00000000	57.33883000	21.68430000
145.59999153	0.00000000	56.96358000	20.94611000
145.79999151	0.00000000	56.92052000	20.57087000
145.99999150	0.00000000	56.92052000	20.52780000
146.19999149	0.00000000	56.92052000	20.52780000
146.39999148	0.00000000	56.96358000	20.52780000
146.59999147	0.00000000	57.33883000	20.52780000
146.79999146	0.00000000	58.08316000	20.57087000
146.99999144	0.00000000	58.45841000	20.94611000
147.19999143	0.00000000	58.45841000	21.68430000
147.39999142	0.00000000	58.12622000	22.10261000
147.59999141	0.00000000	57.71407000	22.47785000
147.79999140	0.00000000	57.70792000	22.84695000
147.99999138	0.00000000	57.29576000	22.43479000
148.19999137	0.00000000	56.96358000	21.72736000
148.39999136	0.00000000	56.92052000	20.94611000
148.59999135	0.00000000	56.92052000	20.57087000
148.79999134	0.00000000	56.96358000	20.52780000
148.99999132	0.00000000	57.33883000	20.52780000
149.19999131	0.00000000	58.08316000	20.52780000
149.39999130	0.00000000	58.40920000	20.48474000
149.59999129	0.00000000	58.12622000	20.19562000
149.79999128	0.00000000	57.75713000	20.20177000
149.99999127	0.00000000	58.12622000	21.30905000
150.19999125	0.00000000	58.40920000	22.01033000
150.39999124	0.00000000	58.08316000	22.10261000
150.59999123	0.00000000	57.33883000	22.10261000
150.79999122	0.00000000	56.96358000	22.10261000
150.99999121	0.00000000	56.92052000	22.05955000
151.19999119	0.00000000	56.92052000	21.68430000
151.39999118	0.00000000	56.92052000	20.94611000
151.59999117	0.00000000	56.92052000	20.57087000
151.79999116	0.00000000	56.92052000	20.52780000
151.99999115	0.00000000	56.96358000	20.52780000
152.19999113	0.00000000	57.33883000	20.52780000
152.39999112	0.00000000	58.08316000	20.52780000
152.59999111	0.00000000	58.45841000	20.57087000
152.79999110	0.00000000	58.50147000	20.94611000
152.99999109	0.00000000	58.45841000	21.68430000
153.19999108	0.00000000	58.08316000	22.05955000
153.39999106	0.00000000	57.33883000	22.10261000
153.59999105	0.00000000	56.96358000	22.10261000
153.79999104	0.00000000	56.92052000	22.10261000
153.99999103	0.00000000	56.92052000	22.10261000
154.19999102	0.00000000	56.92052000	22.05955000
154.39999100	0.00000000	56.92052000	21.68430000
154.59999099	0.00000000	56.92052000	20.94611000
154.79999098	0.00000000	56.96358000	20.57087000
154.99999097	0.00000000	57.33883000	20.52780000
155.19999096	0.00000000	58.08316000	20.52780000
155.39999094	0.00000000	58.45841000	20.52780000
155.59999093	0.00000000	58.50147000	20.52780000
155.79999092	0.00000000	58.50147000	20.57087000
155.99999091	0.00000000	58.45841000	20.94611000
156.19999090	0.00000000	58.08316000	21.68430000
156.39999089	0.00000000	57.33883000	22.05955000
156.59999087	0.00000000	56.92052000	22.10261000
156.79999086	0.00000000	56.54527000	22.10261000
156.99999085	0.00000000	56.17618000	22.10261000
157.19999084	0.00000000	56.54527000	22.05955000
157.39999083	0.00000000	56.87746000	21.68430000
157.59999081	0.00000000	56.92052000	20.94611000
157.79999080	0.00000000	56.96358000	20.57087000
157.99999079	0.00000000	57.33883000	20.52780000
158.19999078	0.00000000	58.08316000	20.52780000
158.39999077	0.00000000	58.45841000	20.52780000
158.59999075	0.00000000	58.45841000	20.52780000
158.79999074	0.00000000	58.08316000	20.52780000
158.99999073	0.00000000	57.33883000	20.57087000
159.19999072	0.00000000	56.96358000	20.94611000
159.39999071	0.00000000	56.92052000	21.68430000
159.59999070	0.00000000	56.92052000	22.05955000
159.79999068	0.00000000	56.92052000	22.10261000
159.99999067	0.00000000	56.92052000	22.10261000
160.19999066	0.00000000	56.92052000	22.05955000
160.39999065	0.00000000	56.92052000	21.68430000
160.59999064	0.00000000	56.92052000	20.94611000
160.79999062	0.00000000	56.92052000	20.57087000
160.99999061	0.00000000	56.92052000	20.52780000
161.19999060	0.00000000	56.92052000	20.52780000
161.39999059	0.00000000	56.92052000	20.52780000
161.59999058	0.00000000	56.96358000	20.52780000
161.79999056	0.00000000	57.33883000	20.57087000
161.99999055	0.00000000	58.08316000	20.94611000
162.19999054	0.00000000	58.40920000	21.64124000
162.39999053	0.00000000	58.08316000	21.68430000
162.59999052	0.00000000	57.33883000	21.32136000
162.79999051	0.00000000	56.96358000	21.35827000
162.99999049	0.00000000	56.92052000	21.27214000
163.19999048	0.00000000	56.92052000	21.30905000
163.39999047	0.00000000	56.92052000	20.90305000
163.59999046	0.00000000	56.87746000	20.57087000
163.79999045	0.00000000	56.54527000	20.52780000
163.99999043	0.00000000	56.17618000	20.52780000
164.19999042	0.00000000	56.58833000	20.52780000
164.39999041	0.00000000	57.29576000	20.52780000
164.59999040	0.00000000	58.03395000	20.52780000
164.79999039	0.00000000	58.08316000	20.52780000
164.99999037	0.00000000	57.75713000	20.52780000
165.19999036	0.00000000	58.08316000	20.52780000
165.39999035	0.00000000	58.03395000	20.52780000
165.59999034	0.00000000	57.33883000	20.57087000
165.79999033	0.00000000	56.96358000	20.90305000
165.99999032	0.00000000	56.92052000	21.30905000
166.19999030	0.00000000	56.92052000	21.32136000
166.39999029	0.00000000	56.92052000	21.68430000
166.59999028	0.00000000	56.92052000	21.64124000
166.79999027	0.00000000	56.92052000	20.94611000
166.99999026	0.00000000	56.92052000	20.57087000
167.19999024	0.00000000	56.92052000	20.52780000
167.39999023	0.00000000	56.92052000	20.52780000
167.59999022	0.00000000	56.96358000	20.52780000
167.79999021	0.00000000	57.29576000	20.52780000
167.99999020	0.00000000	57.66486000	20.52780000
168.19999018	0.00000000	57.33883000	20.57087000
168.39999017	0.00000000	57.33883000	20.94611000
168.59999016	0.00000000	57.66486000	21.64124000
168.79999015	0.00000000	57.29576000	21.64124000
168.99999014	0.00000000	56.96358000	20.94611000
169.19999013	0.00000000	56.92052000	20.57087000
169.39999011	0.00000000	56.92052000	20.52780000
169.59999010	0.00000000	56.92052000	20.52780000
169.79999009	0.00000000	56.92052000	20.52780000
169.99999008	0.00000000	56.92052000	20.52780000
170.19999007	0.00000000	56.96358000	20.52780000
170.39999005	0.00000000	57.29576000	20.52780000
170.59999004	0.00000000	57.66486000	20.52780000
170.79999003	0.00000000	57.29576000	20.52780000
170.99999002	0.00000000	56.96358000	20.52780000
171.19999001	0.00000000	56.92052000	20.52780000
171.39998999	0.00000000	56.92052000	20.52780000
171.59998998	0.00000000	56.92052000	20.52780000
171.79998997	0.00000000	56.92052000	20.52780000
171.99998996	0.00000000	56.92052000	20.52780000
172.19998995	0.00000000	56.92052000	20.52780000
172.39998994	0.00000000	56.92052000	20.52780000
172.59998992	0.00000000	56.92052000	20.52780000
172.79998991	0.00000000	56.92052000	20.52780000
172.99998990	0.00000000	56.92052000	20.52780000
173.19998989	0.00000000	56.92052000	20.52780000
173.39998988	0.00000000	56.92052000	20.52780000
173.59998986	0.00000000	56.92052000	20.52780000
173.79998985	0.00000000	56.92052000	20.52780000
173.99998984	0.00000000	56.92052000	20.52780000
174.19998983	0.00000000	56.92052000	20.52780000
174.39998982	0.00000000	56.92052000	20.52780000
174.59998980	0.00000000	56.92052000	20.52780000
174.79998979	0.00000000	56.92052000	20.52780000
174.99998978	0.00000000	56.92052000	20.52780000
175.19998977	0.00000000	56.92052000	20.52780000
175.39998976	0.00000000	56.92052000	20.52780000
175.59998975	0.00000000	56.92052000	20.57087000
175.79998973	0.00000000	56.92052000	20.90305000
175.99998972	0.00000000	56.92052000	21.26599000
176.19998971	0.00000000	56.92052000	20.90305000
176.39998970	0.00000000	56.92052000	20.57087000
176.59998969	0.00000000	56.92052000	20.52780000
176.79998967	0.00000000	56.92052000	20.52780000
176.99998966	0.00000000	56.92052000	20.52780000
177.19998965	0.00000000	56.92052000	20.52780000
177.39998964	0.00000000	56.92052000	20.52780000
177.59998963	0.00000000	56.92052000	20.52780000
177.79998961	0.00000000	56.92052000	20.52780000
177.99998960	0.00000000	56.92052000	20.52780000
178.19998959	0.00000000	56.92052000	20.52780000
178.39998958	0.00000000	56.92052000	20.57087000
178.59998957	0.00000000	56.92052000	20.90305000
178.79998956	0.00000000	56.92052000	21.26599000
178.99998954	0.00000000	56.92052000	20.90305000
179.19998953	0.00000000	56.92052000	20.57087000
179.39998952	0.00000000	56.92052000	20.52780000
179.59998951	0.00000000	56.92052000	20.52780000
179.79998950	0.00000000	56.92052000	20.52780000
179.99998948	0.00000000	56.92052000	20.52780000
180.19998947	0.00000000	56.92052000	20.52780000
180.39998946	0.00000000	56.92052000	20.52780000
180.59998945	0.00000000	56.92052000	20.52780000
180.79998944	0.00000000	56.92052000	20.52780000
180.99998942	0.00000000	56.92052000	20.52780000
181.19998941	0.00000000	56.92052000	20.52780000
181.39998940	0.00000000	56.92052000	20.57087000
181.59998939	0.00000000	56.92052000	20.90305000
181.79998938	0.00000000	56.92052000	21.30905000
181.99998937	0.00000000	56.92052000	21.27214000
182.19998935	0.00000000	56.92052000	21.30905000
182.39998934	0.00000000	56.92052000	20.90305000
182.59998933	0.00000000	56.92052000	20.57087000
182.79998932	0.00000000	56.92052000	20.52780000
182.99998931	0.00000000	56.92052000	20.52780000
183.19998929	0.00000000	56.92052000	20.52780000
183.39998928	0.00000000	56.92052000	20.52780000
183.59998927	0.00000000	56.92052000	20.52780000
183.79998926	0.00000000	56.92052000	20.57087000
183.99998925	0.00000000	56.92052000	20.94611000
184.19998923	0.00000000	56.92052000	21.64124000
184.39998922	0.00000000	56.92052000	21.68430000
184.59998921	0.00000000	56.92052000	21.36442000
184.79998920	0.00000000	56.92052000	21.68430000
184.99998919	0.00000000	56.92052000	21.64124000
185.19998918	0.00000000	56.92052000	20.94611000
185.39998916	0.00000000	56.92052000	20.57087000
185.59998915	0.00000000	56.92052000	20.52780000
185.79998914	0.00000000	56.92052000	20.52780000
185.99998913	0.00000000	56.92052000	20.52780000
186.19998912	0.00000000	56.92052000	20.48474000
186.39998910	0.00000000	56.92052000	20.15256000
186.59998909	0.00000000	56.92052000	19.78346000
186.79998908	0.00000000	56.92052000	20.19562000
186.99998907	0.00000000	56.92052000	20.90305000
187.19998906	0.00000000	56.92052000	21.64124000
187.39998904	0.00000000	56.92052000	21.64124000
187.59998903	0.00000000	56.92052000	20.94611000
187.79998902	0.00000000	56.92052000	20.57087000
187.99998901	0.00000000	56.92052000	20.52780000
188.19998900	0.00000000	56.92052000	20.52780000
188.39998899	0.00000000	56.92052000	20.48474000
188.59998897	0.00000000	56.92052000	20.15256000
188.79998896	0.00000000	56.92052000	19.78346000
188.99998895	0.00000000	56.92052000	20.15256000
189.19998894	0.00000000	56.92052000	20.48474000
189.39998893	0.00000000	56.92052000	20.52780000
189.59998891	0.00000000	56.92052000	20.52780000
189.79998890	0.00000000	56.92052000	20.52780000
189.99998889	0.00000000	56.92052000	20.52780000
190.19998888	0.00000000	56.87746000	20.52780000
190.39998887	0.00000000	56.54527000	20.52780000
190.59998885	0.00000000	56.17618000	20.52780000
190.79998884	0.00000000	56.54527000	20.52780000
190.99998883	0.00000000	56.87746000	20.52780000
191.19998882	0.00000000	56.92052000	20.52780000
191.39998881	0.00000000	56.92052000	20.52780000
191.59998880	0.00000000	56.92052000	20.48474000
191.79998878	0.00000000	56.92052000	20.15256000
191.99998877	0.00000000	56.92052000	19.78346000
192.19998876	0.00000000	56.92052000	20.15256000
192.39998875	0.00000000	56.87746000	20.48474000
192.59998874	0.00000000	56.50221000	20.52780000
192.79998872	0.00000000	55.75787000	20.52780000
192.99998871	0.00000000	55.38263000	20.52780000
193.19998870	0.00000000	55.38263000	20.52780000
193.39998869	0.00000000	55.75787000	20.52780000
193.59998868	0.00000000	56.50221000	20.52780000
193.79998866	0.00000000	56.87746000	20.52780000
193.99998865	0.00000000	56.92052000	20.52780000
194.19998864	0.00000000	56.92052000	20.52780000
194.39998863	0.00000000	56.92052000	20.52780000
194.59998862	0.00000000	56.92052000	20.52780000
194.79998861	0.00000000	56.92052000	20.52780000
194.99998859	0.00000000	56.92052000	20.52780000
195.19998858	0.00000000	56.92052000	20.52780000
195.39998857	0.00000000	56.92052000	20.52780000
195.59998856	0.00000000	56.92052000	20.52780000
195.79998855	0.00000000	56.92052000	20.52780000
195.99998853	0.00000000	56.92052000	20.52780000
