Time	Channel A	Channel B	Channel C
(us)	(V)	(mV)	(mV)

-4.49999956	0.00000000	15.06521000	9.51648500
-4.29999957	0.00000000	15.43430000	9.84867000
-4.09999958	0.00000000	15.76649000	10.21161000
-3.89999959	0.00000000	15.80955000	9.84867000
-3.69999960	0.00000000	15.80955000	9.51648500
-3.49999962	0.00000000	15.80955000	9.47342500
-3.29999963	0.00000000	15.80955000	9.47342500
-3.09999964	0.00000000	15.76649000	9.47342500
-2.89999965	0.00000000	15.43430000	9.47342500
-2.69999966	0.00000000	15.06521000	9.47342500
-2.49999968	0.00000000	15.43430000	9.47342500
-2.29999969	0.00000000	15.76649000	9.47342500
-2.09999970	0.00000000	15.80955000	9.47342500
-1.89999971	0.00000000	15.80955000	9.47342500
-1.69999972	0.00000000	15.80955000	9.47342500
-1.49999973	0.00000000	15.80955000	9.47342500
-1.29999975	0.00000000	15.80955000	9.47342500
-1.09999976	0.00000000	15.76649000	9.47342500
-0.89999977	0.00000000	15.43430000	9.47342500
-0.69999978	0.00000000	15.06521000	9.47342500
-0.49999979	0.00000000	15.39124000	9.47342500
-0.29999981	0.31803640	15.39124000	9.47342500
-0.09999982	0.63668800	15.06521000	9.47342500
0.10000017	0.95533960	15.43430000	9.47342500
0.30000016	1.11466500	15.76649000	9.47342500
0.50000015	0.79601380	15.80955000	9.47342500
0.70000013	0.31803640	15.76649000	9.47342500
0.90000012	-0.63668800	15.43430000	9.47342500
1.10000011	-1.59264300	15.06521000	9.47342500
1.30000010	-2.38927200	15.43430000	9.47342500
1.50000009	-2.70792300	15.76649000	9.51648500
1.70000008	-2.38927200	15.80955000	9.89173200
1.90000006	-1.27399100	15.80955000	10.58686000
2.10000005	0.63668800	15.80955000	10.62992000
2.30000004	2.86724900	15.80955000	10.26698000
2.50000003	4.61921700	15.76649000	10.25467000
2.70000002	5.41584600	15.43430000	9.84867000
2.90000000	4.77854300	15.02214000	9.51648500
3.09999999	2.70792300	15.05905000	9.47342500
3.29999998	-0.31803640	15.02214000	9.47342500
3.49999997	-3.82258900	15.43430000	9.47342500
3.69999996	-6.53112700	15.76649000	9.51648500
3.89999994	-7.96444400	15.80955000	9.89173200
4.09999993	-7.32714100	15.80955000	10.62992000
4.29999992	-4.77854300	15.80955000	11.00517000
4.49999991	-0.79601380	15.76649000	11.04823000
4.69999990	3.66326300	15.43430000	11.00517000
4.89999989	7.32714100	15.06521000	10.62992000
5.09999987	9.39837600	15.43430000	9.89173200
5.29999986	8.92039900	15.76649000	9.51648500
5.49999985	6.37180100	15.76649000	9.47342500
5.69999984	2.07062000	15.43430000	9.47342500
5.89999983	-2.70792300	15.06521000	9.47342500
6.09999981	-6.84916400	15.43430000	9.51648500
6.29999980	-9.07972400	15.76649000	9.89173200
6.49999979	-9.23905000	15.80955000	10.62992000
6.69999978	-7.00848900	15.80955000	11.00517000
6.89999977	-3.18590100	15.80955000	11.04823000
7.09999975	1.27399100	15.80955000	11.04823000
7.29999974	5.09719500	15.80955000	11.04823000
7.49999973	7.32714100	15.80955000	11.04823000
7.69999972	7.64579200	15.80955000	11.04823000
7.89999971	6.05315000	15.80955000	11.04823000
8.09999970	3.18590100	15.80955000	11.00517000
8.29999968	-0.15871060	15.80955000	10.67298000
8.49999967	-3.02657500	15.80955000	10.31004000
8.69999966	-4.77854300	15.80955000	10.67298000
8.89999965	-5.25652100	15.80955000	10.95595000
9.09999964	-4.30056600	15.80955000	10.67298000
9.29999962	-2.54859700	15.80955000	10.31004000
9.49999961	-0.47736220	15.80955000	10.62992000
9.69999960	1.11466500	15.80955000	10.58686000
9.89999959	2.22994600	15.80955000	9.89173200
10.09999958	2.54859700	15.80955000	9.51648500
10.29999956	2.22994600	15.80955000	9.51648500
10.49999955	1.43331700	15.80955000	9.89173200
10.69999954	0.47736220	15.80955000	10.58686000
10.89999953	-0.31803640	15.80955000	10.62992000
11.09999952	-0.79601380	15.80955000	10.31004000
11.29999951	-0.95533960	15.80955000	10.67298000
11.49999949	-0.95533960	15.80955000	11.00517000
11.69999948	-0.79601380	15.80955000	11.04823000
11.89999947	-0.31803640	15.80955000	11.04823000
12.09999946	-0.15871060	15.80955000	11.04823000
12.29999945	-0.15871060	15.80955000	11.04823000
12.49999943	-0.15871060	15.80955000	11.04823000
12.69999942	0.00000000	15.80955000	11.04823000
12.89999941	0.00000000	15.80955000	11.04823000
13.09999940	0.15871060	15.80955000	11.04823000
13.29999939	0.00000000	15.80955000	11.04823000
13.49999937	0.00000000	15.80955000	11.04823000
13.69999936	0.00000000	15.80955000	11.04823000
13.89999935	0.00000000	15.80955000	11.04823000
14.09999934	-0.15871060	15.80955000	11.04823000
14.29999933	-0.15871060	15.80955000	11.04823000
14.49999932	-0.15871060	15.80955000	11.04823000
14.69999930	0.00000000	15.80955000	11.04823000
14.89999929	0.00000000	15.80955000	11.04823000
15.09999928	0.00000000	15.80955000	11.04823000
15.29999927	0.00000000	15.80955000	11.04823000
15.49999926	0.15871060	15.80955000	11.04823000
15.69999924	0.00000000	15.76649000	11.00517000
15.89999923	0.00000000	15.43430000	10.72219000
16.09999922	0.00000000	15.06521000	10.68528000
16.29999921	0.00000000	15.43430000	11.41732000
16.49999920	-0.15871060	15.76649000	11.38041000
16.69999919	-0.15871060	15.85261000	11.09129000
16.89999917	0.00000000	16.22785000	11.04823000
17.09999916	0.00000000	16.97219000	11.04823000
17.29999915	0.00000000	17.34744000	11.04823000
17.49999914	0.00000000	17.39050000	11.04823000
17.69999913	0.00000000	17.39050000	11.04823000
17.89999911	0.00000000	17.34744000	11.04823000
18.09999910	0.00000000	16.92298000	11.04823000
18.29999909	0.00000000	15.71727000	11.04823000
18.49999908	0.00000000	13.85334000	11.04823000
18.69999907	0.00000000	11.95251000	11.04823000
18.89999905	0.00000000	11.15896000	11.00517000
19.09999904	0.00000000	11.15896000	10.67298000
19.29999903	0.00000000	12.03863000	10.31004000
19.49999902	0.00000000	14.73917000	10.62992000
19.69999901	0.00000000	18.59621000	10.62992000
19.89999900	0.00000000	22.46555000	10.31004000
20.09999898	0.00000000	25.94734000	10.67298000
20.29999897	0.00000000	27.76821000	11.00517000
20.49999896	0.00000000	26.97465000	11.04823000
20.69999895	0.00000000	23.06841000	11.04823000
20.89999894	0.00000000	16.87992000	11.04823000
21.09999892	0.00000000	9.48572700	11.04823000
21.29999891	0.00000000	2.17765700	11.04823000
21.49999890	0.00000000	-3.16806100	11.04823000
21.69999889	0.00000000	-4.66289300	11.04823000
21.89999888	0.00000000	-1.50098400	11.04823000
22.09999886	0.00000000	6.31766700	11.04823000
22.29999885	0.00000000	17.94414000	11.04823000
22.49999884	0.00000000	31.02239000	11.04823000
22.69999883	0.00000000	42.18750000	11.04823000
22.89999882	0.00000000	48.28986000	11.04823000
23.09999881	0.00000000	47.44709000	11.09129000
23.29999879	0.00000000	38.89025000	11.46653000
23.49999878	0.00000000	24.23105000	12.21087000
23.69999877	0.00000000	6.79133800	12.58612000
23.89999876	0.00000000	-9.82406400	12.62918000
24.09999875	0.00000000	-22.10261000	12.62918000
24.29999873	0.00000000	-26.24877000	12.58612000
24.49999872	0.00000000	-20.38632000	12.16166000
24.69999871	0.00000000	-5.30880900	11.00517000
24.89999870	0.00000000	15.90182000	9.42421200
25.09999869	0.00000000	37.95522000	7.51722400
25.29999867	0.00000000	56.05930000	5.66560000
25.49999866	0.00000000	66.05560000	5.33341500
25.69999865	0.00000000	64.48695000	6.82209600
25.89999864	0.00000000	52.10384000	9.55954600
26.09999863	0.00000000	31.20694000	13.09670000
26.29999862	0.00000000	6.13927100	17.32283000
26.49999860	0.00000000	-16.62155000	21.13066000
26.69999859	0.00000000	-32.11122000	23.03765000
26.89999858	0.00000000	-36.71875000	22.61934000
27.09999857	0.00000000	-29.36762000	19.46358000
27.29999856	0.00000000	-11.63263000	13.65650000
27.49999854	0.00000000	12.32160000	6.31766700
27.69999853	0.00000000	36.61417000	-1.02116100
27.89999852	0.00000000	55.96087000	-6.78518600
28.09999851	0.00000000	65.64345000	-9.43036400
28.29999850	0.00000000	64.24705000	-7.81250000
28.49999848	0.00000000	52.98966000	-1.58710600
28.69999847	0.00000000	34.46112000	8.49532500
28.89999846	0.00000000	12.42003000	20.43553000
29.09999845	0.00000000	-7.64025500	31.63140000
29.29999844	0.00000000	-21.68430000	39.25935000
29.49999843	0.00000000	-27.08538000	41.16019000
29.69999841	0.00000000	-23.26525000	36.09744000
29.89999840	0.00000000	-10.93750000	25.27067000
30.09999839	0.00000000	6.41609200	10.54380000
30.29999838	0.00000000	24.60630000	-5.25344500
30.49999837	0.00000000	40.14518000	-18.35630000
30.69999835	0.00000000	49.82160000	-25.65207000
30.89999834	0.00000000	52.18996000	-25.27682000
31.09999833	0.00000000	46.84424000	-17.10753000
31.29999832	0.00000000	35.67913000	-2.79281500
31.49999831	0.00000000	21.67200000	15.32357000
31.69999829	0.00000000	7.01279500	32.70177000
31.89999828	0.00000000	-4.98277500	45.48474000
32.09999827	0.00000000	-11.22662000	51.61171000
32.29999826	0.00000000	-11.68184000	48.87426000
32.49999825	0.00000000	-6.19463500	37.76451000
32.69999824	0.00000000	4.13385800	21.50590000
32.89999822	0.00000000	16.50467000	3.33415300
33.09999821	0.00000000	27.72515000	-13.28740000
33.29999820	0.00000000	35.86368000	-24.48942000
33.49999819	0.00000000	38.98253000	-28.38951000
33.69999818	0.00000000	36.74950000	-24.11417000
33.89999816	0.00000000	30.55487000	-12.54921000
34.09999815	0.00000000	21.66585000	3.66633800
34.29999814	0.00000000	12.08784000	21.03838000
34.49999813	0.00000000	4.73671200	35.72219000
34.69999812	0.00000000	1.19955700	44.64198000
34.89999810	0.00000000	1.57480300	46.17987000
35.09999809	0.00000000	5.80708600	40.04060000
35.29999808	0.00000000	12.69070000	27.73130000
35.49999807	0.00000000	19.95571000	12.72146000
35.69999806	0.00000000	25.39370000	-1.58710600
35.89999805	0.00000000	27.76821000	-12.03863000
36.09999803	0.00000000	27.39296000	-16.68307000
36.29999802	0.00000000	24.27411000	-14.77608000
36.49999801	0.00000000	18.92839000	-6.69291300
36.69999800	0.00000000	13.20128000	5.20423200
36.89999799	0.00000000	8.92593500	17.88263000
37.09999797	0.00000000	7.01279500	27.87278000
37.29999796	0.00000000	7.76328700	32.56643000
37.49999795	0.00000000	11.24508000	31.45300000
37.69999794	0.00000000	16.18479000	25.27067000
37.89999793	0.00000000	21.24754000	15.32357000
38.09999791	0.00000000	25.06767000	4.68134800
38.29999790	0.00000000	27.01772000	-2.60826800
38.49999789	0.00000000	26.27953000	-4.60752900
38.69999788	0.00000000	23.62205000	-1.53789400
38.89999787	0.00000000	20.08489000	5.75172200
39.09999786	0.00000000	15.80955000	15.28051000
39.29999784	0.00000000	11.62032000	23.68971000
39.49999783	0.00000000	8.87672100	28.29724000
39.69999782	0.00000000	8.08316900	27.92200000
39.89999781	0.00000000	8.83366100	22.53322000
40.09999780	0.00000000	11.20202000	13.74262000
40.29999778	0.00000000	14.64690000	4.12770700
40.49999777	0.00000000	18.55315000	-3.53715500
40.69999776	0.00000000	22.04109000	-7.34498000
40.89999775	0.00000000	24.78469000	-5.81323800
41.09999774	0.00000000	26.27953000	0.68897630
41.29999772	0.00000000	25.94734000	9.94094400
41.49999771	0.00000000	23.99729000	19.93110000
41.69999770	0.00000000	21.29675000	27.96506000
41.89999769	0.00000000	17.76575000	31.45300000
42.09999768	0.00000000	14.32087000	29.91511000
42.29999767	0.00000000	11.57726000	23.78199000
42.49999765	0.00000000	10.03937000	14.58538000
42.69999764	0.00000000	9.99630800	5.38262700
42.89999763	0.00000000	11.15896000	-1.63016700
43.09999762	0.00000000	13.06594000	-5.11195900
43.29999761	0.00000000	15.39124000	-4.74286400
43.49999759	0.00000000	17.34744000	-0.51673230
43.69999758	0.00000000	18.92839000	6.36072800
43.89999757	0.00000000	20.08489000	13.65650000
44.09999756	0.00000000	20.50935000	19.46358000
44.29999755	0.00000000	20.55241000	22.57628000
44.49999753	0.00000000	20.55241000	22.66855000
44.69999752	0.00000000	20.55241000	20.34941000
44.89999751	0.00000000	20.50935000	16.52928000
45.09999750	0.00000000	20.13410000	11.88484000
45.29999749	0.00000000	19.30364000	8.02780400
45.49999748	0.00000000	18.08563000	5.29035400
45.69999746	0.00000000	15.71727000	4.12770700
45.89999745	0.00000000	12.69070000	4.87204700
46.09999744	0.00000000	9.99630800	6.77903500
46.29999743	0.00000000	8.41535400	9.51648500
46.49999742	0.00000000	8.08316900	12.53691000
46.69999740	0.00000000	9.30118100	14.90526000
46.89999739	0.00000000	12.87525000	16.11712000
47.09999738	0.00000000	18.22711000	16.85531000
47.29999737	0.00000000	24.40945000	16.39395000
47.49999736	0.00000000	29.39222000	14.16092000
47.69999734	0.00000000	32.13582000	11.46653000
47.89999733	0.00000000	32.04355000	9.09817800
48.09999732	0.00000000	28.50640000	6.77903500
48.29999731	0.00000000	21.57972000	5.33341500
48.49999730	0.00000000	13.11516000	5.66560000
48.69999729	0.00000000	5.38877900	7.56643700
48.89999727	0.00000000	-0.00615157	9.89173200
49.09999726	0.00000000	-1.50098400	12.67224000
49.29999725	0.00000000	1.57480300	15.74188000
49.49999724	0.00000000	8.55068800	18.39321000
49.69999723	0.00000000	17.76575000	19.50664000
49.89999721	0.00000000	27.01772000	18.35015000
50.09999720	0.00000000	33.58760000	15.27436000
50.29999719	0.00000000	36.33120000	11.04823000
50.49999718	0.00000000	34.75024000	6.86515700
50.69999717	0.00000000	28.93085000	4.12770700
50.89999715	0.00000000	20.13410000	3.33415300
51.09999714	0.00000000	10.92520000	4.12770700
51.29999713	0.00000000	4.31840500	6.86515700
51.49999712	0.00000000	1.19955700	11.04823000
51.69999711	0.00000000	2.03617100	15.32357000
51.89999710	0.00000000	7.38804100	18.76845000
52.09999708	0.00000000	15.39124000	20.71235000
52.29999707	0.00000000	23.11762000	20.30020000
52.49999706	0.00000000	28.93085000	18.06102000
52.69999705	0.00000000	31.58218000	14.53617000
52.89999704	0.00000000	30.04429000	10.72219000
53.09999702	0.00000000	24.74163000	7.24040300
53.29999701	0.00000000	17.85802000	5.37647600
53.49999700	0.00000000	11.66339000	5.70866100
53.69999699	0.00000000	7.43110200	7.98474400
53.89999698	0.00000000	6.31766700	11.00517000
54.09999696	0.00000000	8.96899500	13.74262000
54.29999695	0.00000000	14.32087000	15.64960000
54.49999694	0.00000000	20.46014000	16.39395000
54.69999693	0.00000000	25.85507000	15.27436000
54.89999692	0.00000000	28.93085000	13.00443000
55.09999691	0.00000000	28.93085000	10.72219000
55.29999689	0.00000000	25.85507000	8.77214500
55.49999688	0.00000000	20.50935000	8.07086500
55.69999687	0.00000000	14.78223000	8.82135800
55.89999686	0.00000000	10.50689000	11.14050000
56.09999685	0.00000000	8.55068800	14.16092000
56.29999683	0.00000000	8.92593500	16.81225000
56.49999682	0.00000000	11.62032000	17.92569000
56.69999681	0.00000000	15.85261000	16.76919000
56.89999680	0.00000000	20.46014000	13.69956000
57.09999679	0.00000000	24.32333000	9.51648500
57.29999677	0.00000000	26.23031000	5.66560000
57.49999676	0.00000000	25.90428000	3.33415300
57.69999675	0.00000000	23.62205000	2.63902500
57.89999674	0.00000000	20.55241000	4.59522600
58.09999673	0.00000000	17.43356000	9.19045200
58.29999672	0.00000000	14.73917000	14.58538000
58.49999670	0.00000000	13.20128000	20.01722000
58.69999669	0.00000000	13.15822000	24.15723000
58.89999668	0.00000000	14.32087000	25.27067000
59.09999667	0.00000000	16.22785000	22.57628000
59.29999666	0.00000000	18.50394000	16.81225000
59.49999664	0.00000000	20.04183000	9.51648500
59.69999663	0.00000000	20.50935000	2.59596400
59.89999662	0.00000000	20.50935000	-2.00541300
60.09999661	0.00000000	20.08489000	-3.16190900
60.29999660	0.00000000	18.97145000	-0.46751960
60.49999658	0.00000000	17.85802000	5.33341500
60.69999657	0.00000000	17.43356000	13.00443000
60.89999656	0.00000000	17.43356000	20.71235000
61.09999655	0.00000000	17.80881000	26.06422000
61.29999654	0.00000000	18.59621000	28.05118000
61.49999653	0.00000000	19.34670000	26.10728000
61.69999651	0.00000000	20.08489000	21.08760000
61.89999650	0.00000000	20.04183000	13.74262000
62.09999649	0.00000000	18.92839000	5.66560000
62.29999648	0.00000000	17.39050000	-0.84276570
62.49999647	0.00000000	15.85261000	-4.32455700
62.69999645	0.00000000	14.69611000	-3.58021600
62.89999644	0.00000000	14.36393000	0.63976370
63.09999643	0.00000000	15.11442000	7.19734200
63.29999642	0.00000000	17.05832000	14.94833000
63.49999641	0.00000000	19.30364000	21.78888000
63.69999639	0.00000000	21.29675000	26.10113000
63.89999638	0.00000000	22.41634000	26.52559000
64.09999637	0.00000000	22.82849000	24.24335000
64.29999636	0.00000000	21.99803000	19.55585000
64.49999635	0.00000000	20.13410000	13.04749000
64.69999634	0.00000000	17.80881000	6.86515700
64.89999632	0.00000000	15.85261000	2.17765700
65.09999631	0.00000000	14.32087000	-0.51673230
65.29999630	0.00000000	13.57652000	-0.51673230
65.49999629	0.00000000	14.36393000	2.12844500
65.69999628	0.00000000	16.22785000	6.35457700
65.89999626	0.00000000	18.55315000	11.00517000
66.09999625	0.00000000	20.46014000	15.27436000
66.29999624	0.00000000	21.62278000	18.43627000
66.49999623	0.00000000	21.57972000	20.39247000
66.69999622	0.00000000	20.08489000	21.17372000
66.89999620	0.00000000	17.80881000	20.39247000
67.09999619	0.00000000	15.90182000	18.47933000
67.29999618	0.00000000	14.73917000	15.74188000
67.49999617	0.00000000	14.78223000	12.62918000
67.69999616	0.00000000	16.32013000	9.47342500
67.89999615	0.00000000	19.01451000	6.40378900
68.09999613	0.00000000	22.04109000	4.08464600
68.29999612	0.00000000	24.32333000	3.24803100
68.49999611	0.00000000	24.69857000	3.29109200
68.69999610	0.00000000	23.20374000	4.54601300
68.89999609	0.00000000	20.46014000	8.02780400
69.09999607	0.00000000	16.92298000	12.62918000
69.29999606	0.00000000	12.73991000	17.27362000
69.49999605	0.00000000	9.34424200	21.17372000
69.69999604	0.00000000	8.55068800	23.45595000
69.89999603	0.00000000	10.08243000	23.82505000
70.09999601	0.00000000	13.61959000	21.50590000
70.29999600	0.00000000	19.01451000	17.27362000
70.49999599	0.00000000	24.74163000	12.25394000
70.69999598	0.00000000	29.01698000	7.19734200
70.89999597	0.00000000	30.97318000	3.37721400
71.09999596	0.00000000	30.55487000	1.43331700
71.29999594	0.00000000	27.39296000	2.22071800
71.49999593	0.00000000	21.62278000	5.24729300
71.69999592	0.00000000	14.73917000	9.51648500
71.89999591	0.00000000	8.92593500	14.11786000
72.09999590	0.00000000	5.43184000	18.01796000
72.29999588	0.00000000	4.69365100	20.30020000
72.49999587	0.00000000	7.38804100	20.71235000
72.69999586	0.00000000	12.73991000	18.81152000
72.89999585	0.00000000	18.92839000	15.78494000
73.09999584	0.00000000	24.78469000	12.72146000
73.29999582	0.00000000	29.39222000	10.40231000
73.49999581	0.00000000	31.71752000	9.56569900
73.69999580	0.00000000	30.93012000	9.51648500
73.89999579	0.00000000	27.48524000	9.98400600
74.09999578	0.00000000	22.09030000	11.46653000
74.29999577	0.00000000	16.36319000	13.28125000
74.49999575	0.00000000	12.08784000	13.65650000
74.69999574	0.00000000	10.08243000	12.53691000
74.89999573	0.00000000	10.03937000	10.67298000
75.09999572	0.00000000	11.62032000	8.77214500
75.29999571	0.00000000	14.69611000	8.02780400
75.49999569	0.00000000	18.50394000	8.40305000
75.69999568	0.00000000	21.62278000	9.98400600
75.89999567	0.00000000	23.57899000	12.72146000
76.09999566	0.00000000	24.36639000	16.11712000
76.29999565	0.00000000	23.62205000	19.22367000
76.49999563	0.00000000	22.13336000	20.71850000
76.69999562	0.00000000	20.55241000	20.66929000
76.89999561	0.00000000	19.01451000	17.92569000
77.09999560	0.00000000	17.85802000	13.00443000
77.29999559	0.00000000	17.48277000	7.93553100
77.49999558	0.00000000	17.80881000	3.29109200
77.69999556	0.00000000	18.50394000	-0.09227362
77.89999555	0.00000000	18.50394000	-0.46751960
78.09999554	0.00000000	17.76575000	2.17765700
78.29999553	0.00000000	17.01525000	6.86515700
78.49999552	0.00000000	16.22785000	13.04749000
78.69999550	0.00000000	15.90182000	19.55585000
78.89999549	0.00000000	16.27707000	24.15723000
79.09999548	0.00000000	17.48277000	25.73203000
79.29999547	0.00000000	19.38976000	24.24335000
79.49999546	0.00000000	21.71506000	20.39247000
79.69999544	0.00000000	23.57899000	15.36663000
79.89999543	0.00000000	24.36639000	9.89173200
80.09999542	0.00000000	23.62205000	4.91510800
80.29999541	0.00000000	22.04109000	1.43946800
80.49999540	0.00000000	19.71580000	0.63976370
80.69999539	0.00000000	16.64616000	2.12844500
80.89999537	0.00000000	14.36393000	5.24729300
81.09999536	0.00000000	13.15822000	9.47342500
81.29999535	0.00000000	13.20128000	13.74262000
81.49999534	0.00000000	14.73917000	17.27977000
81.69999533	0.00000000	17.43356000	20.01722000
81.89999531	0.00000000	20.50935000	21.54897000
82.09999530	0.00000000	23.20374000	21.54897000
82.29999529	0.00000000	24.74163000	20.01722000
82.49999528	0.00000000	24.74163000	17.32283000
82.69999527	0.00000000	23.24680000	14.21014000
82.89999525	0.00000000	20.92766000	11.04823000
83.09999524	0.00000000	18.63927000	7.98474400
83.29999523	0.00000000	16.69537000	5.66560000
83.49999522	0.00000000	15.90182000	4.82898600
83.69999521	0.00000000	15.85261000	4.82898600
83.89999520	0.00000000	16.27707000	5.70866100
84.09999518	0.00000000	17.43356000	8.44611200
84.29999517	0.00000000	18.92839000	12.62918000
84.49999516	0.00000000	20.08489000	16.85531000
84.69999515	0.00000000	20.50935000	20.01722000
84.89999514	0.00000000	20.55241000	21.92421000
85.09999512	0.00000000	20.50935000	22.29331000
85.29999511	0.00000000	20.17716000	20.34941000
85.49999510	0.00000000	19.80807000	16.90453000
85.69999509	0.00000000	20.17716000	12.58612000
85.89999508	0.00000000	20.50935000	7.98474400
86.09999506	0.00000000	20.55241000	4.12770700
86.29999505	0.00000000	20.55241000	2.22071800
86.49999504	0.00000000	20.50935000	2.59596400
86.69999503	0.00000000	20.08489000	5.33341500
86.89999502	0.00000000	18.92839000	9.89173200
87.09999501	0.00000000	17.43356000	14.90526000
87.29999499	0.00000000	16.32013000	18.81152000
87.49999498	0.00000000	16.27707000	21.50590000
87.69999497	0.00000000	17.05832000	22.24409000
87.89999496	0.00000000	18.22711000	20.34941000
88.09999495	0.00000000	20.13410000	16.85531000
88.29999493	0.00000000	21.66585000	12.21087000
88.49999492	0.00000000	22.46555000	7.28346400
88.69999491	0.00000000	22.82849000	4.21998000
88.89999490	0.00000000	22.04109000	3.75246000
89.09999489	0.00000000	20.55241000	5.29035400
89.29999487	0.00000000	18.97145000	8.40305000
89.49999486	0.00000000	17.43356000	12.62918000
89.69999485	0.00000000	16.32013000	16.85531000
89.89999484	0.00000000	16.27707000	19.88189000
90.09999483	0.00000000	17.01525000	20.71235000
90.29999482	0.00000000	17.80881000	19.13755000
90.49999480	0.00000000	18.97145000	16.06176000
90.69999479	0.00000000	20.08489000	11.46653000
90.89999478	0.00000000	20.55241000	7.28346400
91.09999477	0.00000000	20.92766000	4.91510800
91.29999476	0.00000000	21.29675000	4.17691900
91.49999474	0.00000000	20.92766000	5.75172200
91.69999473	0.00000000	20.59547000	9.56569900
91.89999472	0.00000000	20.50935000	14.11786000
92.09999471	0.00000000	20.13410000	17.97490000
92.29999470	0.00000000	19.38976000	19.93110000
92.49999468	0.00000000	19.01451000	19.93110000
92.69999467	0.00000000	18.97145000	17.97490000
92.89999466	0.00000000	18.92839000	14.11786000
93.09999465	0.00000000	18.55315000	9.56569900
93.29999464	0.00000000	17.80881000	5.70866100
93.49999463	0.00000000	17.43356000	3.80167300
93.69999461	0.00000000	17.43356000	4.17076700
93.89999460	0.00000000	17.85802000	6.90821800
94.09999459	0.00000000	19.01451000	11.46653000
94.29999458	0.00000000	20.55241000	16.39395000
94.49999457	0.00000000	22.13336000	19.50664000
94.69999455	0.00000000	23.67126000	20.30020000
94.89999454	0.00000000	24.78469000	19.18061000
95.09999453	0.00000000	24.74163000	16.07406000
95.29999452	0.00000000	23.20374000	12.25394000
95.49999451	0.00000000	20.50935000	8.40305000
95.69999449	0.00000000	17.43356000	5.75172200
95.89999448	0.00000000	14.69611000	5.33341500
96.09999447	0.00000000	12.82603000	6.86515700
96.29999446	0.00000000	12.46309000	9.93479300
96.49999445	0.00000000	14.36393000	13.74262000
96.69999444	0.00000000	17.39050000	16.81225000
96.89999442	0.00000000	20.55241000	18.39321000
97.09999441	0.00000000	23.67126000	18.43627000
97.29999440	0.00000000	26.36565000	17.27362000
97.49999439	0.00000000	27.90354000	15.32357000
97.69999438	0.00000000	27.86048000	12.62918000
97.89999436	0.00000000	25.94734000	9.98400600
98.09999435	0.00000000	22.46555000	8.44611200
98.29999434	0.00000000	18.63927000	8.40305000
98.49999433	0.00000000	15.11442000	9.51648500
98.69999432	0.00000000	12.82603000	11.09744000
98.89999430	0.00000000	11.99557000	13.00443000
99.09999429	0.00000000	12.82603000	14.90526000
99.29999428	0.00000000	15.11442000	15.64960000
99.49999427	0.00000000	18.59621000	15.36663000
99.69999426	0.00000000	22.09030000	14.62844000
99.89999425	0.00000000	25.20300000	14.25320000
100.09999423	0.00000000	27.48524000	14.21014000
100.29999422	0.00000000	27.90354000	14.25320000
100.49999421	0.00000000	26.78395000	14.58538000
100.69999420	0.00000000	24.82775000	14.94833000
100.89999419	0.00000000	22.09030000	14.53617000
101.09999417	0.00000000	19.01451000	13.79183000
101.29999416	0.00000000	16.32013000	12.58612000
101.49999415	0.00000000	14.73917000	11.04823000
101.69999414	0.00000000	14.32087000	9.51648500
101.89999413	0.00000000	14.73917000	8.40305000
102.09999411	0.00000000	16.27707000	8.44611200
102.29999410	0.00000000	18.59621000	9.98400600
102.49999409	0.00000000	20.92766000	12.67224000
102.69999408	0.00000000	23.24680000	15.74188000
102.89999407	0.00000000	24.78469000	18.39321000
103.09999406	0.00000000	25.20300000	19.55585000
103.29999404	0.00000000	24.82775000	18.81152000
103.49999403	0.00000000	23.67126000	16.90453000
103.69999402	0.00000000	22.09030000	14.16092000
103.89999401	0.00000000	20.13410000	11.09744000
104.09999400	0.00000000	17.85802000	8.40305000
104.29999398	0.00000000	16.36319000	6.86515700
104.49999397	0.00000000	16.27707000	6.86515700
104.69999396	0.00000000	17.01525000	8.40305000
104.89999395	0.00000000	17.80881000	11.09744000
105.09999394	0.00000000	19.01451000	14.16092000
105.29999392	0.00000000	20.55241000	16.85531000
105.49999391	0.00000000	22.09030000	18.39321000
105.69999390	0.00000000	23.20374000	18.43627000
105.89999389	0.00000000	23.20374000	17.27362000
106.09999388	0.00000000	22.09030000	15.32357000
106.29999387	0.00000000	20.55241000	12.67224000
106.49999385	0.00000000	19.06373000	10.40231000
106.69999384	0.00000000	18.27633000	9.56569900
106.89999383	0.00000000	18.63927000	9.56569900
107.09999382	0.00000000	19.38976000	10.35310000
107.29999381	0.00000000	20.55241000	12.25394000
107.49999379	0.00000000	21.66585000	14.11786000
107.69999378	0.00000000	22.09030000	15.32357000
107.89999377	0.00000000	22.09030000	15.69267000
108.09999376	0.00000000	21.66585000	15.32357000
108.29999375	0.00000000	20.50935000	14.16092000
108.49999374	0.00000000	19.01451000	12.62918000
108.69999372	0.00000000	17.85802000	11.09744000
108.89999371	0.00000000	17.48277000	9.98400600
109.09999370	0.00000000	17.85802000	9.98400600
109.29999369	0.00000000	19.01451000	11.14050000
109.49999368	0.00000000	20.50935000	12.95522000
109.69999366	0.00000000	21.71506000	14.53002000
109.89999365	0.00000000	22.50861000	14.95448000
110.09999364	0.00000000	23.24680000	15.36663000
110.29999363	0.00000000	23.24680000	15.32357000
110.49999362	0.00000000	22.46555000	14.53617000
110.69999360	0.00000000	21.33981000	13.41658000
110.89999359	0.00000000	19.76501000	11.84178000
111.09999358	0.00000000	18.63927000	10.72219000
111.29999357	0.00000000	17.80881000	9.93479300
111.49999356	0.00000000	17.48277000	9.93479300
111.69999355	0.00000000	17.85802000	10.67298000
111.89999353	0.00000000	19.01451000	11.46653000
112.09999352	0.00000000	20.50935000	12.62918000
112.29999351	0.00000000	21.66585000	13.74262000
112.49999350	0.00000000	22.09030000	14.16708000
112.69999349	0.00000000	22.13336000	14.21014000
112.89999347	0.00000000	22.09030000	14.21014000
113.09999346	0.00000000	21.71506000	14.16708000
113.29999345	0.00000000	20.97072000	13.79183000
113.49999344	0.00000000	20.55241000	13.04749000
113.69999343	0.00000000	20.13410000	12.67224000
113.89999341	0.00000000	19.43897000	12.62918000
114.09999340	0.00000000	19.43897000	12.62918000
114.29999339	0.00000000	20.13410000	12.62918000
114.49999338	0.00000000	20.50935000	12.62918000
114.69999337	0.00000000	20.59547000	12.62918000
114.89999336	0.00000000	20.97072000	12.62918000
115.09999334	0.00000000	21.71506000	12.62918000
115.29999333	0.00000000	22.09030000	12.62918000
115.49999332	0.00000000	22.13336000	12.67224000
115.69999331	0.00000000	22.09030000	13.04749000
115.89999330	0.00000000	21.71506000	13.83489000
116.09999328	0.00000000	20.92766000	14.58538000
116.29999327	0.00000000	20.17716000	15.36663000
116.49999326	0.00000000	19.38976000	15.74188000
116.69999325	0.00000000	19.06373000	15.74188000
116.89999324	0.00000000	19.38976000	15.36663000
117.09999322	0.00000000	20.17716000	14.58538000
117.29999321	0.00000000	20.92766000	13.83489000
117.49999320	0.00000000	21.75812000	13.00443000
117.69999319	0.00000000	22.50861000	12.25394000
117.89999318	0.00000000	23.29601000	11.51575000
118.09999317	0.00000000	23.62205000	11.51575000
118.29999315	0.00000000	23.29601000	12.21087000
118.49999314	0.00000000	22.50861000	12.62918000
118.69999313	0.00000000	21.66585000	13.04749000
118.89999312	0.00000000	20.13410000	13.79183000
119.09999311	0.00000000	18.31939000	14.21014000
119.29999309	0.00000000	17.90108000	14.58538000
119.49999308	0.00000000	18.59621000	14.94833000
119.69999307	0.00000000	19.34670000	14.58538000
119.89999306	0.00000000	20.17716000	14.25320000
120.09999305	0.00000000	20.97072000	14.21014000
120.29999303	0.00000000	22.17643000	14.16708000
120.49999302	0.00000000	23.62205000	13.79183000
120.69999301	0.00000000	24.40945000	13.04749000
120.89999300	0.00000000	24.04650000	12.67224000
121.09999299	0.00000000	23.29601000	12.58612000
121.29999298	0.00000000	22.09030000	12.25394000
121.49999296	0.00000000	20.59547000	11.88484000
121.69999295	0.00000000	19.38976000	12.25394000
121.89999294	0.00000000	18.59621000	12.58612000
122.09999293	0.00000000	17.85802000	12.67224000
122.29999292	0.00000000	17.90108000	13.04749000
122.49999290	0.00000000	18.97145000	13.79183000
122.69999289	0.00000000	20.13410000	14.16708000
122.89999288	0.00000000	20.97072000	14.21014000
123.09999287	0.00000000	22.13336000	14.21014000
123.29999286	0.00000000	23.20374000	14.16708000
123.49999284	0.00000000	23.24680000	13.79183000
123.69999283	0.00000000	22.55167000	13.04749000
123.89999282	0.00000000	22.17643000	12.62918000
124.09999281	0.00000000	22.09030000	12.21087000
124.29999280	0.00000000	21.71506000	11.46653000
124.49999279	0.00000000	20.92766000	11.14050000
124.69999277	0.00000000	20.17716000	11.46653000
124.89999276	0.00000000	19.38976000	12.25394000
125.09999275	0.00000000	19.01451000	13.00443000
125.29999274	0.00000000	19.01451000	13.79183000
125.49999273	0.00000000	19.38976000	14.16708000
125.69999271	0.00000000	20.22022000	14.21014000
125.89999270	0.00000000	21.30290000	14.21014000
126.09999269	0.00000000	22.50246000	14.21014000
126.29999268	0.00000000	22.88386000	14.21014000
126.49999267	0.00000000	23.33907000	14.21014000
126.69999265	0.00000000	23.62205000	14.16708000
126.89999264	0.00000000	23.29601000	13.79183000
127.09999263	0.00000000	22.50861000	13.04749000
127.29999262	0.00000000	21.71506000	12.67224000
127.49999261	0.00000000	20.55241000	12.62918000
127.69999260	0.00000000	19.38976000	12.62918000
127.89999258	0.00000000	18.68848000	12.67224000
128.09999257	0.00000000	18.65157000	13.04749000
128.29999256	0.00000000	19.80192000	13.79183000
128.49999255	0.00000000	20.92766000	14.16708000
128.69999254	0.00000000	22.13336000	14.21014000
128.89999252	0.00000000	23.24680000	14.21014000
129.09999251	0.00000000	23.67126000	14.21014000
129.29999250	0.00000000	23.67126000	14.21014000
129.49999249	0.00000000	23.24680000	14.16708000
129.69999248	0.00000000	22.09030000	13.79183000
129.89999246	0.00000000	20.59547000	13.04749000
130.09999245	0.00000000	19.43897000	12.72146000
130.29999244	0.00000000	19.06373000	13.04749000
130.49999243	0.00000000	19.38976000	13.79183000
130.69999242	0.00000000	20.17716000	14.16708000
130.89999241	0.00000000	20.97072000	14.21014000
131.09999239	0.00000000	22.13336000	14.21014000
131.29999238	0.00000000	23.24680000	14.21014000
131.49999237	0.00000000	23.67126000	14.16708000
131.69999236	0.00000000	23.67126000	13.79183000
131.89999235	0.00000000	23.29601000	13.04749000
132.09999233	0.00000000	22.50861000	12.67224000
132.29999232	0.00000000	21.75812000	12.67224000
132.49999231	0.00000000	20.97072000	13.00443000
132.69999230	0.00000000	20.59547000	13.41658000
132.89999229	0.00000000	20.55241000	13.42274000
133.09999227	0.00000000	20.59547000	13.87795000
133.29999226	0.00000000	20.97072000	14.58538000
133.49999225	0.00000000	21.71506000	15.36663000
133.69999224	0.00000000	22.09030000	15.74188000
133.89999223	0.00000000	22.13336000	15.74188000
134.09999222	0.00000000	22.13336000	15.32357000
134.29999220	0.00000000	22.13336000	14.21014000
134.49999219	0.00000000	22.09030000	13.04749000
134.69999218	0.00000000	21.75812000	12.25394000
134.89999217	0.00000000	21.38902000	11.46653000
135.09999216	0.00000000	21.75812000	11.14050000
135.29999214	0.00000000	22.09030000	11.46653000
135.49999213	0.00000000	22.13336000	12.25394000
135.69999212	0.00000000	22.13336000	13.00443000
135.89999211	0.00000000	22.13336000	13.79183000
136.09999210	0.00000000	22.09030000	14.16708000
136.29999208	0.00000000	21.71506000	14.21014000
136.49999207	0.00000000	20.97072000	14.21014000
136.69999206	0.00000000	20.59547000	14.21014000
136.89999205	0.00000000	20.55241000	14.21014000
137.09999204	0.00000000	20.59547000	14.16708000
137.29999203	0.00000000	20.97072000	13.79183000
137.49999201	0.00000000	21.75812000	13.04749000
137.69999200	0.00000000	22.50861000	12.67224000
137.89999199	0.00000000	23.29601000	12.62918000
138.09999198	0.00000000	23.62205000	12.62918000
138.29999197	0.00000000	23.29601000	12.62918000
138.49999195	0.00000000	22.50861000	12.62918000
138.69999194	0.00000000	21.75812000	12.67224000
138.89999193	0.00000000	20.97072000	13.04749000
139.09999192	0.00000000	20.59547000	13.79183000
139.29999191	0.00000000	20.55241000	14.21014000
139.49999189	0.00000000	20.59547000	14.62844000
139.69999188	0.00000000	20.97072000	15.36663000
139.89999187	0.00000000	21.75812000	15.69267000
140.09999186	0.00000000	22.50861000	15.36663000
140.29999185	0.00000000	23.29601000	14.58538000
140.49999184	0.00000000	23.62205000	13.83489000
140.69999182	0.00000000	23.29601000	13.00443000
140.89999181	0.00000000	22.55167000	12.25394000
141.09999180	0.00000000	22.17643000	11.46653000
141.29999179	0.00000000	22.09030000	11.14050000
141.49999178	0.00000000	21.71506000	11.51575000
141.69999176	0.00000000	21.01993000	12.67224000
141.89999175	0.00000000	21.01993000	14.16092000
142.09999174	0.00000000	21.71506000	15.32357000
142.29999173	0.00000000	22.13336000	15.74188000
142.49999172	0.00000000	22.50861000	15.78494000
142.69999170	0.00000000	22.87770000	15.74188000
142.89999169	0.00000000	22.50861000	15.32357000
143.09999168	0.00000000	22.17643000	14.21014000
143.29999167	0.00000000	22.13336000	13.09670000
143.49999166	0.00000000	22.13336000	12.67224000
143.69999165	0.00000000	22.13336000	12.62918000
143.89999163	0.00000000	22.13336000	12.67224000
144.09999162	0.00000000	22.13336000	13.04749000
144.29999161	0.00000000	22.13336000	13.79183000
144.49999160	0.00000000	22.17643000	14.21014000
144.69999159	0.00000000	22.50861000	14.62844000
144.89999157	0.00000000	22.92076000	15.36663000
145.09999156	0.00000000	22.88386000	15.74188000
145.29999155	0.00000000	22.92076000	15.74188000
145.49999154	0.00000000	22.50861000	15.36663000
145.69999153	0.00000000	22.17643000	14.62844000
145.89999151	0.00000000	22.13336000	14.25320000
146.09999150	0.00000000	22.13336000	14.16708000
146.29999149	0.00000000	22.13336000	13.79183000
146.49999148	0.00000000	22.17643000	13.04749000
146.69999147	0.00000000	22.55167000	12.72146000
146.89999146	0.00000000	23.29601000	13.04749000
147.09999144	0.00000000	23.67126000	13.79183000
147.29999143	0.00000000	23.71432000	14.16708000
147.49999142	0.00000000	23.67126000	14.21014000
147.69999141	0.00000000	23.29601000	14.25320000
147.89999140	0.00000000	22.55167000	14.58538000
148.09999138	0.00000000	22.17643000	14.99139000
148.29999137	0.00000000	22.13336000	14.95448000
148.49999136	0.00000000	22.13336000	14.99139000
148.69999135	0.00000000	22.13336000	14.58538000
148.89999134	0.00000000	22.13336000	14.25320000
149.09999132	0.00000000	22.17643000	14.16708000
149.29999131	0.00000000	22.55167000	13.83489000
149.49999130	0.00000000	23.29601000	13.46580000
149.69999129	0.00000000	23.67126000	13.83489000
149.89999128	0.00000000	23.71432000	14.16708000
150.09999127	0.00000000	23.67126000	14.21014000
150.29999125	0.00000000	23.29601000	14.21014000
150.49999124	0.00000000	22.55167000	14.21014000
150.69999123	0.00000000	22.13336000	14.21014000
150.89999122	0.00000000	21.71506000	14.21014000
151.09999121	0.00000000	21.01993000	14.21014000
151.29999119	0.00000000	21.01993000	14.21014000
151.49999118	0.00000000	21.71506000	14.21014000
151.69999117	0.00000000	22.09030000	14.16708000
151.89999116	0.00000000	22.13336000	13.79183000
152.09999115	0.00000000	22.17643000	13.04749000
152.29999113	0.00000000	22.55167000	12.67224000
152.49999112	0.00000000	23.29601000	12.67224000
152.69999111	0.00000000	23.67126000	13.04749000
152.89999110	0.00000000	23.71432000	13.79183000
153.09999109	0.00000000	23.67126000	14.16708000
153.29999108	0.00000000	23.29601000	14.21014000
153.49999106	0.00000000	22.55167000	14.21014000
153.69999105	0.00000000	22.17643000	14.21014000
153.89999104	0.00000000	22.13336000	14.21014000
154.09999103	0.00000000	22.13336000	14.21014000
154.29999102	0.00000000	22.13336000	14.21014000
154.49999100	0.00000000	22.13336000	14.21014000
154.69999099	0.00000000	22.13336000	14.21014000
154.89999098	0.00000000	22.17643000	14.21014000
155.09999097	0.00000000	22.55167000	14.21014000
155.29999096	0.00000000	23.29601000	14.21014000
155.49999094	0.00000000	23.67126000	14.21014000
155.69999093	0.00000000	23.71432000	14.21014000
155.89999092	0.00000000	23.71432000	14.21014000
156.09999091	0.00000000	23.67126000	14.21014000
156.29999090	0.00000000	23.29601000	14.21014000
156.49999089	0.00000000	22.55167000	14.21014000
156.69999087	0.00000000	22.17643000	14.25320000
156.89999086	0.00000000	22.13336000	14.62844000
157.09999085	0.00000000	22.13336000	15.36663000
157.29999084	0.00000000	22.13336000	15.74188000
157.49999083	0.00000000	22.13336000	15.74188000
157.69999081	0.00000000	22.17643000	15.36663000
157.89999080	0.00000000	22.55167000	14.62844000
158.09999079	0.00000000	23.29601000	14.25320000
158.29999078	0.00000000	23.67126000	14.21014000
158.49999077	0.00000000	23.71432000	14.21014000
158.69999075	0.00000000	23.71432000	14.25320000
158.89999074	0.00000000	23.71432000	14.58538000
159.09999073	0.00000000	23.71432000	14.94833000
159.29999072	0.00000000	23.71432000	14.62844000
159.49999071	0.00000000	23.67126000	14.67150000
159.69999070	0.00000000	23.33907000	15.36663000
159.89999068	0.00000000	22.96998000	15.74188000
160.09999067	0.00000000	23.29601000	15.78494000
160.29999066	0.00000000	23.24680000	15.74188000
160.49999065	0.00000000	22.55167000	15.36663000
160.69999064	0.00000000	22.17643000	14.62844000
160.89999062	0.00000000	22.13336000	14.25320000
161.09999061	0.00000000	22.17643000	14.21014000
161.29999060	0.00000000	22.55167000	14.21014000
161.49999059	0.00000000	23.29601000	14.21014000
161.69999058	0.00000000	23.67126000	14.21014000
161.89999056	0.00000000	23.71432000	14.21014000
162.09999055	0.00000000	23.71432000	14.21014000
162.29999054	0.00000000	23.71432000	14.21014000
162.49999053	0.00000000	23.71432000	14.21014000
162.69999052	0.00000000	23.71432000	14.21014000
162.89999051	0.00000000	23.67126000	14.21014000
163.09999049	0.00000000	23.29601000	14.21014000
163.29999048	0.00000000	22.55167000	14.21014000
163.49999047	0.00000000	22.17643000	14.21014000
163.69999046	0.00000000	22.13336000	14.21014000
163.89999045	0.00000000	22.13336000	14.21014000
164.09999043	0.00000000	22.13336000	14.21014000
164.29999042	0.00000000	22.17643000	14.21014000
164.49999041	0.00000000	22.55167000	14.21014000
164.69999040	0.00000000	23.29601000	14.21014000
164.89999039	0.00000000	23.67126000	14.21014000
165.09999037	0.00000000	23.71432000	14.21014000
165.29999036	0.00000000	23.71432000	14.21014000
165.49999035	0.00000000	23.71432000	14.21014000
165.69999034	0.00000000	23.71432000	14.21014000
165.89999033	0.00000000	23.71432000	14.21014000
166.09999032	0.00000000	23.67126000	14.21014000
166.29999030	0.00000000	23.29601000	14.21014000
166.49999029	0.00000000	22.55167000	14.21014000
166.69999028	0.00000000	22.22564000	14.21014000
166.89999027	0.00000000	22.50861000	14.21014000
167.09999026	0.00000000	22.92076000	14.21014000
167.29999024	0.00000000	22.92692000	14.21014000
167.49999023	0.00000000	23.33907000	14.21014000
167.69999022	0.00000000	23.67126000	14.21014000
167.89999021	0.00000000	23.71432000	14.21014000
168.09999020	0.00000000	23.71432000	14.21014000
168.29999018	0.00000000	23.71432000	14.21014000
168.49999017	0.00000000	23.71432000	14.21014000
168.69999016	0.00000000	23.71432000	14.21014000
168.89999015	0.00000000	23.71432000	14.21014000
169.09999014	0.00000000	23.71432000	14.21014000
169.29999013	0.00000000	23.71432000	14.21014000
169.49999011	0.00000000	23.71432000	14.21014000
169.69999010	0.00000000	23.67126000	14.21014000
169.89999009	0.00000000	23.29601000	14.21014000
170.09999008	0.00000000	22.60088000	14.21014000
170.29999007	0.00000000	22.60088000	14.21014000
170.49999005	0.00000000	23.29601000	14.21014000
170.69999004	0.00000000	23.67126000	14.21014000
170.89999003	0.00000000	23.71432000	14.21014000
171.09999002	0.00000000	23.71432000	14.21014000
171.29999001	0.00000000	23.71432000	14.21014000
171.49998999	0.00000000	23.71432000	14.21014000
171.69998998	0.00000000	23.71432000	14.21014000
171.89998997	0.00000000	23.71432000	14.21014000
172.09998996	0.00000000	23.71432000	14.21014000
172.29998995	0.00000000	23.71432000	14.21014000
172.49998994	0.00000000	23.71432000	14.21014000
172.69998992	0.00000000	23.71432000	14.21014000
172.89998991	0.00000000	23.71432000	14.21014000
173.09998990	0.00000000	23.71432000	14.21014000
173.29998989	0.00000000	23.71432000	14.21014000
173.49998988	0.00000000	23.71432000	14.21014000
173.69998986	0.00000000	23.71432000	14.21014000
173.89998985	0.00000000	23.71432000	14.21014000
174.09998984	0.00000000	23.71432000	14.21014000
174.29998983	0.00000000	23.71432000	14.21014000
174.49998982	0.00000000	23.71432000	14.21014000
174.69998980	0.00000000	23.71432000	14.21014000
174.89998979	0.00000000	23.71432000	14.21014000
175.09998978	0.00000000	23.67126000	14.21014000
175.29998977	0.00000000	23.33907000	14.21014000
175.49998976	0.00000000	22.96998000	14.25320000
175.69998975	0.00000000	23.33907000	14.62844000
175.89998973	0.00000000	23.67126000	15.36663000
176.09998972	0.00000000	23.71432000	15.74188000
176.29998971	0.00000000	23.71432000	15.78494000
176.49998970	0.00000000	23.71432000	15.78494000
176.69998969	0.00000000	23.71432000	15.78494000
176.89998967	0.00000000	23.71432000	15.74188000
177.09998966	0.00000000	23.71432000	15.36663000
177.29998965	0.00000000	23.71432000	14.62844000
177.49998964	0.00000000	23.71432000	14.25320000
177.69998963	0.00000000	23.71432000	14.21014000
177.89998961	0.00000000	23.71432000	14.25320000
178.09998960	0.00000000	23.71432000	14.58538000
178.29998959	0.00000000	23.71432000	14.99139000
178.49998958	0.00000000	23.71432000	15.00369000
178.69998957	0.00000000	23.71432000	15.40969000
178.89998956	0.00000000	23.71432000	15.74188000
179.09998954	0.00000000	23.71432000	15.78494000
179.29998953	0.00000000	23.71432000	15.78494000
179.49998952	0.00000000	23.71432000	15.78494000
179.69998951	0.00000000	23.75738000	15.74188000
179.89998950	0.00000000	24.08957000	15.36663000
180.09998948	0.00000000	24.45866000	14.62844000
180.29998947	0.00000000	24.08957000	14.25320000
180.49998946	0.00000000	23.75738000	14.21014000
180.69998945	0.00000000	23.71432000	14.21014000
180.89998944	0.00000000	23.71432000	14.25320000
181.09998942	0.00000000	23.71432000	14.62844000
181.29998941	0.00000000	23.71432000	15.36663000
181.49998940	0.00000000	23.71432000	15.74188000
181.69998939	0.00000000	23.71432000	15.78494000
181.89998938	0.00000000	23.71432000	15.78494000
182.09998937	0.00000000	23.71432000	15.78494000
182.29998935	0.00000000	23.75738000	15.74188000
182.49998934	0.00000000	24.08957000	15.36663000
182.69998933	0.00000000	24.45866000	14.62844000
182.89998932	0.00000000	24.08957000	14.25320000
183.09998931	0.00000000	23.80659000	14.21014000
183.29998929	0.00000000	24.08957000	14.21014000
183.49998928	0.00000000	24.45866000	14.21014000
183.69998927	0.00000000	24.08957000	14.21014000
183.89998926	0.00000000	23.75738000	14.25320000
184.09998925	0.00000000	23.71432000	14.62844000
184.29998923	0.00000000	23.71432000	15.36663000
184.49998922	0.00000000	23.71432000	15.74188000
184.69998921	0.00000000	23.71432000	15.78494000
184.89998920	0.00000000	23.71432000	15.78494000
185.09998919	0.00000000	23.71432000	15.78494000
185.29998918	0.00000000	23.71432000	15.74188000
185.49998916	0.00000000	23.75738000	15.36663000
185.69998915	0.00000000	24.13263000	14.62844000
185.89998914	0.00000000	24.87697000	14.25320000
186.09998913	0.00000000	25.20300000	14.21014000
186.29998912	0.00000000	24.87697000	14.21014000
186.49998910	0.00000000	24.13263000	14.21014000
186.69998909	0.00000000	23.75738000	14.21014000
186.89998908	0.00000000	23.71432000	14.25320000
187.09998907	0.00000000	23.71432000	14.62844000
187.29998906	0.00000000	23.71432000	15.36663000
187.49998904	0.00000000	23.71432000	15.74188000
187.69998903	0.00000000	23.71432000	15.78494000
187.89998902	0.00000000	23.71432000	15.78494000
188.09998901	0.00000000	23.75738000	15.78494000
188.29998900	0.00000000	24.13263000	15.78494000
188.49998899	0.00000000	24.87697000	15.78494000
188.69998897	0.00000000	25.25221000	15.74188000
188.89998896	0.00000000	25.29527000	15.36663000
189.09998895	0.00000000	25.29527000	14.62844000
189.29998894	0.00000000	25.29527000	14.25320000
189.49998893	0.00000000	25.29527000	14.21014000
189.69998891	0.00000000	25.25221000	14.25320000
189.89998890	0.00000000	24.92003000	14.62844000
190.09998889	0.00000000	24.50787000	15.36663000
190.29998888	0.00000000	24.50172000	15.74188000
190.49998887	0.00000000	24.08957000	15.78494000
190.69998885	0.00000000	23.75738000	15.78494000
190.89998884	0.00000000	23.75738000	15.78494000
191.09998883	0.00000000	24.13263000	15.78494000
191.29998882	0.00000000	24.92003000	15.78494000
191.49998881	0.00000000	25.57825000	15.78494000
191.69998880	0.00000000	25.66437000	15.78494000
191.89998878	0.00000000	24.88312000	15.74188000
192.09998877	0.00000000	24.58784000	15.40969000
192.29998876	0.00000000	24.50787000	15.04675000
192.49998875	0.00000000	24.87697000	15.36663000
192.69998874	0.00000000	24.87697000	15.36663000
192.89998872	0.00000000	24.55093000	15.00369000
193.09998871	0.00000000	24.92003000	15.04060000
193.29998870	0.00000000	25.25221000	15.00369000
193.49998869	0.00000000	25.25221000	15.40969000
193.69998868	0.00000000	24.92003000	15.74188000
193.89998866	0.00000000	24.55093000	15.78494000
194.09998865	0.00000000	24.92003000	15.78494000
194.29998864	0.00000000	25.25221000	15.78494000
194.49998863	0.00000000	25.29527000	15.78494000
194.69998862	0.00000000	25.29527000	15.78494000
194.89998861	0.00000000	25.29527000	15.78494000
195.09998859	0.00000000	25.29527000	15.78494000
195.29998858	0.00000000	25.29527000	15.78494000
195.49998857	0.00000000	25.29527000	15.74188000
195.69998856	0.00000000	25.29527000	15.36663000
195.89998855	0.00000000	25.25221000	14.67150000
196.09998853	0.00000000	24.92003000	14.67150000
