Time	Channel A	Channel B	Channel C
(us)	(V)	(mV)	(mV)

-4.49999956	0.00000000	75.89813000	31.57603000
-4.29999957	0.00000000	75.89813000	31.57603000
-4.09999958	0.00000000	75.89813000	31.57603000
-3.89999959	0.00000000	75.89813000	31.57603000
-3.69999960	0.00000000	75.89813000	31.57603000
-3.49999962	0.00000000	75.89813000	31.57603000
-3.29999963	0.00000000	75.89813000	31.57603000
-3.09999964	0.00000000	75.89813000	31.57603000
-2.89999965	0.00000000	75.89813000	31.57603000
-2.69999966	0.00000000	75.89813000	31.57603000
-2.49999968	0.00000000	75.89813000	31.57603000
-2.29999969	0.00000000	75.89813000	31.57603000
-2.09999970	0.00000000	75.94118000	31.57603000
-1.89999971	0.00000000	76.27337000	31.57603000
-1.69999972	0.00000000	76.64246000	31.57603000
-1.49999973	0.00000000	76.27337000	31.57603000
-1.29999975	0.00000000	75.94118000	31.57603000
-1.09999976	0.00000000	75.89813000	31.57603000
-0.89999977	0.00000000	75.89813000	31.57603000
-0.69999978	0.00000000	75.89813000	31.57603000
-0.49999979	0.00000000	75.94118000	31.61909000
-0.29999981	0.31803640	76.27337000	31.95128000
-0.09999982	0.63668800	76.64246000	32.32037000
0.10000017	0.95533960	76.27337000	31.95128000
0.30000016	0.95533960	75.94118000	31.61909000
0.50000015	0.79601380	75.89813000	31.57603000
0.70000013	0.15871060	75.89813000	31.57603000
0.90000012	-0.63668800	75.89813000	31.57603000
1.10000011	-1.59264300	75.89813000	31.61909000
1.30000010	-2.54859700	75.89813000	31.95128000
1.50000009	-2.86724900	75.89813000	32.36343000
1.70000008	-2.38927200	75.89813000	32.36959000
1.90000006	-1.11466500	75.89813000	32.78174000
2.10000005	0.79601380	75.89813000	33.11393000
2.30000004	2.86724900	75.89813000	33.15699000
2.50000003	4.61921700	75.89813000	33.11393000
2.70000002	5.41584600	75.89813000	32.73868000
2.90000000	4.77854300	75.89813000	31.99434000
3.09999999	2.70792300	75.89813000	31.61909000
3.29999998	-0.47736220	75.89813000	31.57603000
3.49999997	-3.82258900	75.89813000	31.57603000
3.69999996	-6.69045300	75.89813000	31.61909000
3.89999994	-7.96444400	75.89813000	31.99434000
4.09999993	-7.32714100	75.89813000	32.73868000
4.29999992	-4.77854300	75.94118000	33.11393000
4.49999991	-0.63668800	76.27337000	33.15699000
4.69999990	3.82258900	76.64246000	33.11393000
4.89999989	7.48646600	76.27337000	32.73868000
5.09999987	9.39837600	75.94118000	31.99434000
5.29999986	8.92039900	75.89813000	31.61909000
5.49999985	6.21247500	75.89813000	31.57603000
5.69999984	1.91129400	75.89813000	31.57603000
5.89999983	-2.86724900	75.89813000	31.57603000
6.09999981	-7.00848900	75.89813000	31.61909000
6.29999980	-9.23905000	75.89813000	31.99434000
6.49999979	-9.07972400	75.89813000	32.73868000
6.69999978	-6.69045300	75.89813000	33.06471000
6.89999977	-3.02657500	75.89813000	32.78174000
7.09999975	1.43331700	75.89813000	32.41265000
7.29999974	5.09719500	75.89813000	32.73868000
7.49999973	7.32714100	75.89813000	32.68946000
7.69999972	7.64579200	75.89813000	31.99434000
7.89999971	6.05315000	75.89813000	31.61909000
8.09999970	3.18590100	75.89813000	31.57603000
8.29999968	-0.15871060	75.89813000	31.57603000
8.49999967	-3.02657500	75.89813000	31.57603000
8.69999966	-4.77854300	75.89813000	31.57603000
8.89999965	-5.09719500	75.89813000	31.57603000
9.09999964	-4.30056600	75.89813000	31.57603000
9.29999962	-2.54859700	75.89813000	31.57603000
9.49999961	-0.47736220	75.89813000	31.57603000
9.69999960	1.27399100	75.89813000	31.57603000
9.89999959	2.22994600	75.89813000	31.57603000
10.09999958	2.54859700	75.89813000	31.57603000
10.29999956	2.07062000	75.89813000	31.57603000
10.49999955	1.27399100	75.89813000	31.57603000
10.69999954	0.47736220	75.89813000	31.57603000
10.89999953	-0.31803640	75.89813000	31.57603000
11.09999952	-0.79601380	75.89813000	31.57603000
11.29999951	-0.95533960	75.89813000	31.57603000
11.49999949	-0.95533960	75.89813000	31.57603000
11.69999948	-0.79601380	75.89813000	31.57603000
11.89999947	-0.31803640	75.89813000	31.57603000
12.09999946	-0.15871060	75.89813000	31.57603000
12.29999945	-0.15871060	75.89813000	31.57603000
12.49999943	-0.15871060	75.89813000	31.57603000
12.69999942	0.00000000	75.89813000	31.57603000
12.89999941	0.00000000	75.89813000	31.57603000
13.09999940	0.15871060	75.89813000	31.57603000
13.29999939	0.15871060	75.89813000	31.57603000
13.49999937	0.00000000	75.89813000	31.57603000
13.69999936	0.00000000	75.89813000	31.57603000
13.89999935	-0.15871060	75.89813000	31.57603000
14.09999934	-0.15871060	75.89813000	31.57603000
14.29999933	-0.15871060	75.89813000	31.57603000
14.49999932	-0.15871060	75.89813000	31.57603000
14.69999930	0.00000000	75.89813000	31.57603000
14.89999929	0.00000000	75.89813000	31.57603000
15.09999928	0.00000000	75.85506000	31.57603000
15.29999927	0.00000000	75.52288000	31.57603000
15.49999926	0.00000000	75.15379000	31.57603000
15.69999924	0.00000000	75.52288000	31.57603000
15.89999923	0.00000000	75.85506000	31.57603000
16.09999922	0.00000000	75.89813000	31.57603000
16.29999921	0.00000000	75.89813000	31.61909000
16.49999920	-0.15871060	75.89813000	31.95128000
16.69999919	-0.15871060	75.89813000	32.32037000
16.89999917	0.00000000	75.94118000	31.95128000
17.09999916	0.00000000	76.31644000	31.61909000
17.29999915	0.00000000	77.06077000	31.61909000
17.49999914	0.00000000	77.43602000	31.95128000
17.69999913	0.00000000	77.43602000	32.32037000
17.89999911	0.00000000	77.06077000	31.95128000
18.09999910	0.00000000	76.23032000	31.61909000
18.29999909	0.00000000	75.06151000	31.57603000
18.49999908	0.00000000	73.15452000	31.57603000
18.69999907	0.00000000	71.62278000	31.57603000
18.89999905	0.00000000	70.82307000	31.61909000
19.09999904	0.00000000	70.50320000	31.95128000
19.29999903	0.00000000	71.70891000	32.32037000
19.49999902	0.00000000	74.40945000	31.95128000
19.69999901	0.00000000	77.89738000	31.61909000
19.89999900	0.00000000	81.80363000	31.57603000
20.09999898	0.00000000	85.20546000	31.57603000
20.29999897	0.00000000	87.10630000	31.57603000
20.49999896	0.00000000	86.31889000	31.57603000
20.69999895	0.00000000	83.20619000	31.57603000
20.89999894	0.00000000	78.03887000	31.57603000
21.09999892	0.00000000	70.68774000	31.57603000
21.29999891	0.00000000	62.68454000	31.57603000
21.49999890	0.00000000	56.91437000	31.57603000
21.69999889	0.00000000	55.00122000	31.57603000
21.89999888	0.00000000	57.42495000	31.57603000
22.09999886	0.00000000	64.81914000	31.57603000
22.29999885	0.00000000	76.03346000	31.57603000
22.49999884	0.00000000	88.41042000	31.57603000
22.69999883	0.00000000	99.58169000	31.57603000
22.89999882	0.00000000	106.42220000	31.57603000
23.09999881	0.00000000	106.37920000	31.61909000
23.29999879	0.00000000	98.97884000	31.99434000
23.49999878	0.00000000	85.39001000	32.73868000
23.69999877	0.00000000	67.99335000	33.11393000
23.89999876	0.00000000	50.68282000	33.15699000
24.09999875	0.00000000	37.97982000	33.11393000
24.29999873	0.00000000	33.36614000	32.73868000
24.49999872	0.00000000	38.11516000	31.90822000
24.69999871	0.00000000	52.07308000	30.73942000
24.89999870	0.00000000	72.91461000	28.79552000
25.09999869	0.00000000	95.30019000	26.93159000
25.29999867	0.00000000	114.23470000	25.77510000
25.49999866	0.00000000	125.35680000	25.77510000
25.69999865	0.00000000	125.26450000	26.97465000
25.89999864	0.00000000	113.30590000	29.34916000
26.09999863	0.00000000	92.08907000	33.20005000
26.29999862	0.00000000	67.00910000	37.43233000
26.49999860	0.00000000	43.75000000	40.92027000
26.69999859	0.00000000	27.17766000	43.19635000
26.89999858	0.00000000	21.03838000	43.10408000
27.09999857	0.00000000	27.64517000	39.99138000
27.29999856	0.00000000	45.33095000	34.18430000
27.49999854	0.00000000	69.66043000	26.83932000
27.69999853	0.00000000	94.78961000	19.45743000
27.89999852	0.00000000	115.26200000	13.31816000
28.09999851	0.00000000	126.47020000	9.97170200
28.29999850	0.00000000	125.77510000	11.59572000
28.49999848	0.00000000	114.23470000	18.52239000
28.69999847	0.00000000	94.87573000	28.97392000
28.89999846	0.00000000	71.70891000	41.00639000
29.09999845	0.00000000	50.07381000	52.53445000
29.29999844	0.00000000	34.94709000	60.56840000
29.49999843	0.00000000	29.08464000	62.47539000
29.69999841	0.00000000	33.32308000	57.78789000
29.89999840	0.00000000	46.44439000	46.91191000
30.09999839	0.00000000	65.33588000	31.48991000
30.29999838	0.00000000	85.39001000	15.27436000
30.49999837	0.00000000	101.67940000	1.79626000
30.69999835	0.00000000	111.07280000	-5.91166300
30.89999834	0.00000000	112.65380000	-5.49950700
31.09999833	0.00000000	106.50840000	2.63287400
31.29999832	0.00000000	94.13754000	17.35974000
31.49999831	0.00000000	78.68478000	35.85138000
31.69999829	0.00000000	63.23819000	53.60482000
31.89999828	0.00000000	51.65477000	66.79379000
32.09999827	0.00000000	46.49360000	72.93307000
32.29999826	0.00000000	47.60704000	70.60777000
32.49999825	0.00000000	54.17076000	59.78715000
32.69999824	0.00000000	65.00369000	43.19635000
32.89999822	0.00000000	77.34374000	24.23720000
33.09999821	0.00000000	88.55191000	6.90821800
33.29999820	0.00000000	95.90305000	-4.74901600
33.49999819	0.00000000	97.90231000	-8.65526600
33.69999818	0.00000000	94.83266000	-4.74901600
33.89999816	0.00000000	87.52460000	6.86515700
34.09999815	0.00000000	77.89738000	23.77584000
34.29999814	0.00000000	68.68233000	41.56618000
34.49999813	0.00000000	62.07553000	56.62524000
34.69999812	0.00000000	59.74409000	65.91412000
34.89999810	0.00000000	61.61417000	67.12598000
35.09999809	0.00000000	67.00910000	60.98671000
35.29999808	0.00000000	74.26796000	49.00344000
35.49999807	0.00000000	81.20078000	33.57529000
35.69999806	0.00000000	85.80831000	18.56545000
35.89999805	0.00000000	87.01402000	7.32652500
36.09999803	0.00000000	84.73794000	2.30684000
36.29999802	0.00000000	80.13041000	4.20767700
36.49999801	0.00000000	74.36023000	12.66609000
36.69999800	0.00000000	68.96530000	25.30758000
36.89999799	0.00000000	65.51427000	38.36737000
37.09999797	0.00000000	64.77608000	48.40059000
37.29999796	0.00000000	67.42741000	53.05118000
37.49999795	0.00000000	72.36097000	51.56250000
37.69999794	0.00000000	77.38681000	44.68504000
37.89999793	0.00000000	81.66830000	34.73794000
38.09999791	0.00000000	84.36269000	24.74778000
38.29999790	0.00000000	84.78715000	17.44587000
38.49999789	0.00000000	83.24926000	14.75148000
38.69999788	0.00000000	80.13041000	17.44587000
38.89999787	0.00000000	75.89813000	24.69857000
39.09999786	0.00000000	71.66584000	34.27042000
39.29999784	0.00000000	68.54699000	43.06102000
39.49999783	0.00000000	66.95989000	48.40059000
39.69999782	0.00000000	66.95989000	48.35752000
39.89999781	0.00000000	68.50394000	42.68578000
40.09999780	0.00000000	71.19833000	33.48917000
40.29999778	0.00000000	74.27411000	23.86196000
40.49999777	0.00000000	77.01156000	15.77879000
40.69999776	0.00000000	79.01697000	11.64493000
40.89999775	0.00000000	80.59792000	13.17667000
41.09999774	0.00000000	81.71136000	20.05413000
41.29999772	0.00000000	81.71136000	30.04429000
41.49999771	0.00000000	80.54871000	40.40969000
41.69999770	0.00000000	78.59251000	48.49286000
41.89999769	0.00000000	75.89813000	51.93159000
42.09999768	0.00000000	73.20374000	50.06767000
42.29999767	0.00000000	71.19833000	43.52239000
42.49999765	0.00000000	69.61736000	34.31963000
42.69999764	0.00000000	68.50394000	24.69857000
42.89999763	0.00000000	68.50394000	17.40280000
43.09999762	0.00000000	69.61736000	14.24705000
43.29999761	0.00000000	71.19833000	15.36048000
43.49999759	0.00000000	73.15452000	19.96186000
43.69999758	0.00000000	75.47981000	26.88853000
43.89999757	0.00000000	77.43602000	34.18430000
44.09999756	0.00000000	79.01697000	39.99138000
44.29999755	0.00000000	80.17347000	43.10408000
44.49999753	0.00000000	80.54871000	43.14714000
44.69999752	0.00000000	80.22269000	40.50196000
44.89999751	0.00000000	79.43528000	36.26968000
45.09999750	0.00000000	78.64173000	31.66830000
45.29999749	0.00000000	77.38681000	27.76821000
45.49999748	0.00000000	75.43060000	25.39985000
45.69999746	0.00000000	72.69316000	24.23720000
45.89999745	0.00000000	69.61736000	24.65551000
46.09999744	0.00000000	66.91682000	26.93159000
46.29999743	0.00000000	65.33588000	29.95201000
46.49999742	0.00000000	65.00369000	32.69562000
46.69999740	0.00000000	66.26476000	34.68873000
46.89999739	0.00000000	70.17101000	36.22662000
47.09999738	0.00000000	75.94118000	36.96481000
47.29999737	0.00000000	82.12967000	36.17741000
47.49999736	0.00000000	87.57381000	34.27042000
47.69999734	0.00000000	90.97564000	31.57603000
47.89999733	0.00000000	91.29551000	28.88164000
48.09999732	0.00000000	87.38926000	26.93159000
48.29999731	0.00000000	80.08734000	25.77510000
48.49999730	0.00000000	71.19833000	25.77510000
48.69999729	0.00000000	62.72760000	26.97465000
48.89999727	0.00000000	56.91437000	29.29995000
49.09999726	0.00000000	55.00122000	32.73868000
49.29999725	0.00000000	57.37573000	35.80217000
49.49999724	0.00000000	64.30856000	37.80142000
49.69999723	0.00000000	73.98499000	38.92101000
49.89999721	0.00000000	83.99975000	38.50270000
50.09999720	0.00000000	92.45816000	36.13435000
50.29999719	0.00000000	96.23523000	32.32037000
50.49999718	0.00000000	94.41436000	27.72515000
50.69999717	0.00000000	87.85679000	24.28026000
50.89999715	0.00000000	78.64173000	22.69931000
51.09999714	0.00000000	68.96530000	23.12377000
51.29999713	0.00000000	61.23892000	25.81816000
51.49999712	0.00000000	57.00049000	30.00123000
51.69999711	0.00000000	57.42495000	34.27042000
51.89999710	0.00000000	62.77681000	37.75836000
52.09999708	0.00000000	71.19833000	40.08366000
52.29999707	0.00000000	80.04429000	40.40969000
52.49999706	0.00000000	86.97095000	38.50270000
52.69999705	0.00000000	90.04675000	34.69488000
52.89999704	0.00000000	88.55191000	30.51181000
53.09999702	0.00000000	83.20619000	27.34990000
53.29999701	0.00000000	75.94118000	25.44291000
53.49999700	0.00000000	69.00836000	25.07382000
53.69999699	0.00000000	64.35777000	26.93159000
53.89999698	0.00000000	62.81988000	29.58292000
54.09999696	0.00000000	64.77608000	31.95128000
54.29999695	0.00000000	70.08488000	34.22736000
54.49999694	0.00000000	76.59325000	35.34079000
54.69999693	0.00000000	81.99433000	34.60261000
54.89999692	0.00000000	85.48228000	32.73868000
55.09999691	0.00000000	85.80831000	30.46260000
55.29999689	0.00000000	82.78174000	28.93085000
55.49999688	0.00000000	77.43602000	28.51255000
55.69999687	0.00000000	71.66584000	28.97392000
55.89999686	0.00000000	67.05216000	30.88090000
56.09999685	0.00000000	64.72686000	33.85211000
56.29999683	0.00000000	65.47121000	35.75910000
56.49999682	0.00000000	68.54699000	36.17741000
56.69999681	0.00000000	73.20374000	35.34079000
56.89999680	0.00000000	78.54945000	32.60334000
57.09999679	0.00000000	82.73868000	28.42027000
57.29999677	0.00000000	84.31963000	24.23720000
57.49999676	0.00000000	83.20619000	21.59203000
57.69999675	0.00000000	80.13041000	21.54281000
57.89999674	0.00000000	75.85506000	23.86196000
58.09999673	0.00000000	71.29060000	27.76821000
58.29999672	0.00000000	67.80266000	33.20005000
58.49999670	0.00000000	66.63385000	38.92101000
58.69999669	0.00000000	67.38435000	43.10408000
58.89999668	0.00000000	70.08488000	44.21752000
59.09999667	0.00000000	73.89886000	41.52312000
59.29999666	0.00000000	77.34374000	35.80217000
59.49999664	0.00000000	79.71210000	28.88164000
59.69999663	0.00000000	80.46259000	22.65625000
59.89999662	0.00000000	79.71210000	18.05487000
60.09999661	0.00000000	77.43602000	16.19710000
60.29999660	0.00000000	74.73548000	18.52239000
60.49999658	0.00000000	72.40403000	24.28026000
60.69999657	0.00000000	70.50320000	31.95128000
60.89999656	0.00000000	70.12794000	39.65920000
61.09999655	0.00000000	71.24754000	45.06028000
61.29999654	0.00000000	73.15452000	47.37943000
61.49999653	0.00000000	75.47981000	45.74926000
61.69999651	0.00000000	77.38681000	40.03444000
61.89999650	0.00000000	78.54945000	31.99434000
62.09999649	0.00000000	78.50639000	24.28026000
62.29999648	0.00000000	76.96850000	18.43012000
62.49999647	0.00000000	74.31717000	15.36048000
62.69999645	0.00000000	71.66584000	15.77879000
62.89999644	0.00000000	70.12794000	20.01107000
63.09999643	0.00000000	70.08488000	26.93159000
63.29999642	0.00000000	71.24754000	34.60261000
63.49999641	0.00000000	73.15452000	41.19709000
63.69999639	0.00000000	75.47981000	45.05413000
63.89999638	0.00000000	77.43602000	45.88459000
64.09999637	0.00000000	78.96776000	43.52239000
64.29999636	0.00000000	79.66904000	38.58883000
64.49999635	0.00000000	78.50639000	32.41265000
64.69999634	0.00000000	75.89813000	26.97465000
64.89999632	0.00000000	73.20374000	22.65625000
65.09999631	0.00000000	71.24754000	20.01107000
65.29999630	0.00000000	70.08488000	20.01107000
65.49999629	0.00000000	70.12794000	22.65625000
65.69999628	0.00000000	71.62278000	26.79626000
65.89999626	0.00000000	73.89886000	30.69636000
66.09999625	0.00000000	75.80585000	33.48302000
66.29999624	0.00000000	77.01156000	35.89444000
66.49999623	0.00000000	77.34374000	37.80142000
66.69999622	0.00000000	76.59325000	38.96407000
66.89999620	0.00000000	74.69241000	38.96407000
67.09999619	0.00000000	72.82849000	37.85064000
67.29999618	0.00000000	71.66584000	36.26968000
67.49999617	0.00000000	71.66584000	34.22736000
67.69999616	0.00000000	72.82849000	31.11466000
67.89999615	0.00000000	74.78469000	27.25763000
68.09999613	0.00000000	77.43602000	23.81890000
68.29999612	0.00000000	79.71210000	21.45669000
68.49999611	0.00000000	80.46259000	20.70620000
68.69999610	0.00000000	79.66904000	21.49975000
68.89999609	0.00000000	76.96850000	24.28026000
69.09999607	0.00000000	73.11147000	28.88779000
69.29999606	0.00000000	69.24213000	34.31963000
69.49999605	0.00000000	65.80339000	39.33932000
69.69999604	0.00000000	64.30856000	43.19635000
69.89999603	0.00000000	65.47121000	44.63582000
70.09999601	0.00000000	68.92224000	42.72884000
70.29999600	0.00000000	73.98499000	37.75836000
70.49999599	0.00000000	79.39222000	31.62524000
70.69999598	0.00000000	84.41190000	25.77510000
70.89999597	0.00000000	87.38926000	21.12451000
71.09999596	0.00000000	87.06323000	18.43012000
71.29999594	0.00000000	83.57529000	18.47318000
71.49999593	0.00000000	78.17421000	21.49975000
71.69999592	0.00000000	71.57356000	26.51329000
71.89999591	0.00000000	65.37893000	31.90822000
72.09999590	0.00000000	60.77140000	36.92175000
72.29999588	0.00000000	58.91363000	39.99138000
72.49999587	0.00000000	61.18971000	40.45890000
72.69999586	0.00000000	66.54158000	38.92101000
72.89999585	0.00000000	73.15452000	35.85138000
73.09999584	0.00000000	80.08734000	32.04355000
73.29999582	0.00000000	85.48228000	28.97392000
73.49999581	0.00000000	87.81372000	27.39296000
73.69999580	0.00000000	87.10630000	27.34990000
73.89999579	0.00000000	83.57529000	28.46333000
74.09999578	0.00000000	78.22342000	30.00123000
74.29999577	0.00000000	72.03493000	31.48991000
74.49999575	0.00000000	67.00910000	32.22810000
74.69999574	0.00000000	63.89025000	31.44069000
74.89999573	0.00000000	63.14591000	29.62598000
75.09999572	0.00000000	65.42815000	27.67593000
75.29999571	0.00000000	69.57431000	26.59941000
75.49999569	0.00000000	73.84965000	26.61171000
75.69999568	0.00000000	77.38681000	28.55561000
75.89999567	0.00000000	80.08734000	31.62524000
76.09999566	0.00000000	81.24999000	35.11319000
76.29999565	0.00000000	80.50565000	38.54576000
76.49999563	0.00000000	78.59251000	40.40969000
76.69999562	0.00000000	75.89813000	40.03444000
76.89999561	0.00000000	73.24680000	37.29700000
77.09999560	0.00000000	71.66584000	32.64640000
77.29999559	0.00000000	71.24754000	26.88853000
77.49999558	0.00000000	71.57356000	21.54281000
77.69999556	0.00000000	72.36097000	18.47318000
77.89999555	0.00000000	73.11147000	18.43012000
78.09999554	0.00000000	73.84965000	21.16757000
78.29999553	0.00000000	73.84965000	26.19340000
78.49999552	0.00000000	73.15452000	32.73868000
78.69999550	0.00000000	72.77928000	38.87795000
78.89999549	0.00000000	72.77928000	43.14714000
79.09999548	0.00000000	73.20374000	44.68504000
79.29999547	0.00000000	74.36023000	43.14714000
79.49999546	0.00000000	75.89813000	38.96407000
79.69999544	0.00000000	77.43602000	33.57529000
79.89999543	0.00000000	78.54945000	28.51255000
80.09999542	0.00000000	78.54945000	24.23720000
80.29999541	0.00000000	77.38681000	21.54281000
80.49999540	0.00000000	75.43060000	21.12451000
80.69999539	0.00000000	72.73621000	22.61319000
80.89999537	0.00000000	70.08488000	25.35064000
81.09999536	0.00000000	68.54699000	28.83858000
81.29999535	0.00000000	68.54699000	32.68946000
81.49999534	0.00000000	70.08488000	35.80217000
81.69999533	0.00000000	72.73621000	37.80142000
81.89999531	0.00000000	75.43060000	38.92101000
82.09999530	0.00000000	77.38681000	38.54576000
82.29999529	0.00000000	78.59251000	36.68799000
82.49999528	0.00000000	78.92471000	34.73794000
82.69999527	0.00000000	78.17421000	32.69562000
82.89999525	0.00000000	76.23032000	30.00123000
83.09999524	0.00000000	73.98499000	27.30684000
83.29999523	0.00000000	72.04109000	25.35064000
83.49999522	0.00000000	71.24754000	24.15108000
83.69999521	0.00000000	71.15526000	23.77584000
83.89999520	0.00000000	71.19833000	24.23720000
84.09999518	0.00000000	71.62278000	26.19340000
84.29999517	0.00000000	72.73621000	29.62598000
84.49999516	0.00000000	73.84965000	33.11393000
84.69999515	0.00000000	74.27411000	36.26968000
84.89999514	0.00000000	74.31717000	38.92101000
85.09999512	0.00000000	74.31717000	40.03444000
85.29999511	0.00000000	74.31717000	38.87795000
85.49999510	0.00000000	74.36023000	35.80217000
85.69999509	0.00000000	74.73548000	31.57603000
85.89999508	0.00000000	75.47981000	27.30684000
86.09999506	0.00000000	75.85506000	23.81890000
86.29999505	0.00000000	75.85506000	21.49975000
86.49999504	0.00000000	75.43060000	21.16757000
86.69999503	0.00000000	74.27411000	23.07455000
86.89999502	0.00000000	72.73621000	26.93159000
87.09999501	0.00000000	71.19833000	31.53297000
87.29999499	0.00000000	70.08488000	35.75910000
87.49999498	0.00000000	70.08488000	38.45349000
87.69999497	0.00000000	71.19833000	38.87795000
87.89999496	0.00000000	72.73621000	37.34006000
88.09999495	0.00000000	74.31717000	34.22736000
88.29999493	0.00000000	75.89813000	30.00123000
88.49999492	0.00000000	77.38681000	25.81816000
88.69999491	0.00000000	78.13115000	23.12377000
88.89999490	0.00000000	77.38681000	22.69931000
89.09999489	0.00000000	75.85506000	24.28026000
89.29999487	0.00000000	73.89886000	27.72515000
89.49999486	0.00000000	71.62278000	32.32037000
89.69999485	0.00000000	70.08488000	36.13435000
89.89999484	0.00000000	69.66658000	38.45349000
90.09999483	0.00000000	70.04182000	38.45349000
90.29999482	0.00000000	71.19833000	36.17741000
90.49999480	0.00000000	72.73621000	32.68946000
90.69999479	0.00000000	74.27411000	28.46333000
90.89999478	0.00000000	75.43060000	24.65551000
91.09999477	0.00000000	75.80585000	22.74852000
91.29999476	0.00000000	75.47981000	23.12377000
91.49999474	0.00000000	74.73548000	25.81816000
91.69999473	0.00000000	74.31717000	30.00123000
91.89999472	0.00000000	73.94193000	34.27042000
92.09999471	0.00000000	73.57283000	37.71530000
92.29999470	0.00000000	73.94193000	39.61614000
92.49999468	0.00000000	74.27411000	38.82874000
92.69999467	0.00000000	74.27411000	35.80217000
92.89999466	0.00000000	73.89886000	31.53297000
93.09999465	0.00000000	73.11147000	26.93159000
93.29999464	0.00000000	72.36097000	23.12377000
93.49999463	0.00000000	71.57356000	21.58587000
93.69999461	0.00000000	71.24754000	22.70546000
93.89999460	0.00000000	71.62278000	25.81816000
94.09999459	0.00000000	72.82849000	30.41954000
94.29999458	0.00000000	74.73548000	35.38385000
94.49999457	0.00000000	77.01156000	38.82874000
94.69999455	0.00000000	78.54945000	40.03444000
94.89999454	0.00000000	78.96776000	38.82874000
95.09999453	0.00000000	78.59251000	35.38385000
95.29999452	0.00000000	77.34374000	30.41954000
95.49999451	0.00000000	75.01230000	25.86122000
95.69999449	0.00000000	71.57356000	23.12377000
95.89999448	0.00000000	68.50394000	22.69931000
96.09999447	0.00000000	66.54158000	24.23720000
96.29999446	0.00000000	65.79724000	27.30684000
96.49999445	0.00000000	67.00910000	31.15772000
96.69999444	0.00000000	70.08488000	34.60261000
96.89999442	0.00000000	74.31717000	36.92175000
97.09999441	0.00000000	78.54945000	37.29700000
97.29999440	0.00000000	81.66830000	35.80217000
97.49999439	0.00000000	83.20619000	33.11393000
97.69999438	0.00000000	82.83096000	30.08735000
97.89999436	0.00000000	80.50565000	27.76821000
98.09999435	0.00000000	77.01156000	26.93159000
98.29999434	0.00000000	72.73621000	26.88238000
98.49999433	0.00000000	68.50394000	27.30684000
98.69999432	0.00000000	65.42815000	28.46333000
98.89999430	0.00000000	64.26550000	29.95201000
99.09999429	0.00000000	65.37893000	31.15772000
99.29999428	0.00000000	68.07948000	31.90822000
99.49999427	0.00000000	71.57356000	32.32037000
99.69999426	0.00000000	75.47981000	31.95128000
99.89999425	0.00000000	78.92471000	31.66830000
100.09999423	0.00000000	81.24999000	31.99434000
100.29999422	0.00000000	81.62524000	32.73868000
100.49999421	0.00000000	80.17347000	33.11393000
100.69999420	0.00000000	77.85432000	33.11393000
100.89999419	0.00000000	75.47981000	32.68946000
101.09999417	0.00000000	72.73621000	31.53297000
101.29999416	0.00000000	70.04182000	30.00123000
101.49999415	0.00000000	68.12868000	28.42027000
101.69999414	0.00000000	67.34129000	26.93159000
101.89999413	0.00000000	68.07948000	26.19340000
102.09999411	0.00000000	69.61736000	26.97465000
102.29999410	0.00000000	71.57356000	28.83858000
102.49999409	0.00000000	73.89886000	31.15772000
102.69999408	0.00000000	75.85506000	33.15699000
102.89999407	0.00000000	77.38681000	35.06397000
103.09999406	0.00000000	78.17421000	36.54650000
103.29999404	0.00000000	77.76205000	36.13435000
103.49999403	0.00000000	76.64246000	34.27042000
103.69999402	0.00000000	74.69241000	31.53297000
103.89999401	0.00000000	72.77928000	28.46333000
104.09999400	0.00000000	71.19833000	25.81816000
104.29999398	0.00000000	70.04182000	24.61245000
104.49999397	0.00000000	69.66658000	24.98154000
104.69999396	0.00000000	70.04182000	26.14419000
104.89999395	0.00000000	71.19833000	28.51255000
105.09999394	0.00000000	72.73621000	31.53297000
105.29999392	0.00000000	74.27411000	34.22736000
105.49999391	0.00000000	75.43060000	35.75910000
105.69999390	0.00000000	75.80585000	35.75910000
105.89999389	0.00000000	75.47981000	34.22736000
106.09999388	0.00000000	74.69241000	31.57603000
106.29999387	0.00000000	73.89886000	28.93085000
106.49999385	0.00000000	72.73621000	27.34990000
106.69999384	0.00000000	71.66584000	26.88238000
106.89999383	0.00000000	71.62278000	26.93159000
107.09999382	0.00000000	72.36097000	27.72515000
107.29999381	0.00000000	73.11147000	29.62598000
107.49999379	0.00000000	73.89886000	31.48991000
107.69999378	0.00000000	74.27411000	32.68946000
107.89999377	0.00000000	74.31717000	33.06471000
108.09999376	0.00000000	74.27411000	32.68946000
108.29999375	0.00000000	73.84965000	31.53297000
108.49999374	0.00000000	72.73621000	30.00123000
108.69999372	0.00000000	71.62278000	28.51255000
108.89999371	0.00000000	71.24754000	27.72515000
109.09999370	0.00000000	71.57356000	28.08809000
109.29999369	0.00000000	72.36097000	28.88779000
109.49999368	0.00000000	73.15452000	30.41954000
109.69999366	0.00000000	74.31717000	32.32037000
109.89999365	0.00000000	75.43060000	33.48917000
110.09999364	0.00000000	75.80585000	34.27042000
110.29999363	0.00000000	75.47981000	34.22736000
110.49999362	0.00000000	74.69241000	33.11393000
110.69999360	0.00000000	73.89886000	31.57603000
110.89999359	0.00000000	72.73621000	30.04429000
111.09999358	0.00000000	71.62278000	28.88779000
111.29999357	0.00000000	71.19833000	28.46333000
111.49999356	0.00000000	71.19833000	28.46333000
111.69999355	0.00000000	71.62278000	28.88779000
111.89999353	0.00000000	72.73621000	30.00123000
112.09999352	0.00000000	73.89886000	31.15772000
112.29999351	0.00000000	74.69241000	31.95128000
112.49999350	0.00000000	75.43060000	32.73868000
112.69999349	0.00000000	75.43060000	33.06471000
112.89999347	0.00000000	74.69241000	32.73868000
113.09999346	0.00000000	73.94193000	31.99434000
113.29999345	0.00000000	73.11147000	31.61909000
113.49999344	0.00000000	72.40403000	31.53297000
113.69999343	0.00000000	71.99188000	31.15772000
113.89999341	0.00000000	72.36097000	30.41954000
114.09999340	0.00000000	72.69316000	30.04429000
114.29999339	0.00000000	72.73621000	30.00123000
114.49999338	0.00000000	72.77928000	29.95817000
114.69999337	0.00000000	73.15452000	29.58292000
114.89999336	0.00000000	73.89886000	28.83858000
115.09999334	0.00000000	74.27411000	28.46333000
115.29999333	0.00000000	74.27411000	28.46333000
115.49999332	0.00000000	73.94193000	28.83858000
115.69999331	0.00000000	73.52977000	29.62598000
115.89999330	0.00000000	73.52361000	30.37647000
116.09999328	0.00000000	73.06840000	31.15772000
116.29999327	0.00000000	72.36097000	31.57603000
116.49999326	0.00000000	71.57356000	31.95128000
116.69999325	0.00000000	71.24754000	32.32037000
116.89999324	0.00000000	71.57356000	31.90822000
117.09999322	0.00000000	72.36097000	31.15772000
117.29999321	0.00000000	73.11147000	30.00123000
117.49999320	0.00000000	73.89886000	28.83858000
117.69999319	0.00000000	74.31717000	28.08809000
117.89999318	0.00000000	74.69241000	27.67593000
118.09999317	0.00000000	75.06151000	28.04503000
118.29999315	0.00000000	74.64935000	28.42027000
118.49999314	0.00000000	73.89886000	28.83858000
118.69999313	0.00000000	72.73621000	29.62598000
118.89999312	0.00000000	71.57356000	30.41954000
119.09999311	0.00000000	70.78001000	31.57603000
119.29999309	0.00000000	70.04182000	32.64640000
119.49999308	0.00000000	70.04182000	32.68946000
119.69999307	0.00000000	70.78001000	31.99434000
119.89999306	0.00000000	71.57356000	31.57603000
120.09999305	0.00000000	72.73621000	31.15772000
120.29999303	0.00000000	73.89886000	30.41954000
120.49999302	0.00000000	74.69241000	30.00123000
120.69999301	0.00000000	75.47981000	29.62598000
120.89999300	0.00000000	75.80585000	29.25689000
121.09999299	0.00000000	75.43060000	29.62598000
121.29999298	0.00000000	74.27411000	29.95817000
121.49999296	0.00000000	72.77928000	30.00123000
121.69999295	0.00000000	71.62278000	30.00123000
121.89999294	0.00000000	71.19833000	30.04429000
122.09999293	0.00000000	71.15526000	30.41954000
122.29999292	0.00000000	71.15526000	31.15772000
122.49999290	0.00000000	71.19833000	31.53297000
122.69999289	0.00000000	71.57356000	31.57603000
122.89999288	0.00000000	72.36097000	31.57603000
123.09999287	0.00000000	73.11147000	31.57603000
123.29999286	0.00000000	73.89886000	31.53297000
123.49999284	0.00000000	74.31717000	31.15772000
123.69999283	0.00000000	74.69241000	30.41954000
123.89999282	0.00000000	75.06151000	30.04429000
124.09999281	0.00000000	74.64935000	30.00123000
124.29999280	0.00000000	73.94193000	30.00123000
124.49999279	0.00000000	73.11147000	30.00123000
124.69999277	0.00000000	72.36097000	30.00123000
124.89999276	0.00000000	71.57356000	30.00123000
125.09999275	0.00000000	71.19833000	30.00123000
125.29999274	0.00000000	71.15526000	30.04429000
125.49999273	0.00000000	71.15526000	30.41954000
125.69999271	0.00000000	71.19833000	31.15772000
125.89999270	0.00000000	71.62278000	31.53297000
126.09999269	0.00000000	72.73621000	31.57603000
126.29999268	0.00000000	73.89886000	31.57603000
126.49999267	0.00000000	74.69241000	31.53297000
126.69999265	0.00000000	75.43060000	31.15772000
126.89999264	0.00000000	75.38755000	30.41954000
127.09999263	0.00000000	74.31717000	30.04429000
127.29999262	0.00000000	73.15452000	30.00123000
127.49999261	0.00000000	72.36097000	30.00123000
127.69999260	0.00000000	71.53051000	30.00123000
127.89999258	0.00000000	70.82307000	30.00123000
128.09999257	0.00000000	70.46014000	30.00123000
128.29999256	0.00000000	71.19833000	30.00123000
128.49999255	0.00000000	72.31791000	30.00123000
128.69999254	0.00000000	73.11147000	30.04429000
128.89999252	0.00000000	73.89886000	30.37647000
129.09999251	0.00000000	74.27411000	30.73942000
129.29999250	0.00000000	74.27411000	30.32726000
129.49999249	0.00000000	73.84965000	29.66904000
129.69999248	0.00000000	72.73621000	29.21383000
129.89999246	0.00000000	71.62278000	29.25074000
130.09999245	0.00000000	71.19833000	29.21383000
130.29999244	0.00000000	71.15526000	29.62598000
130.49999243	0.00000000	71.15526000	29.95817000
130.69999242	0.00000000	71.19833000	30.00123000
130.89999241	0.00000000	71.57356000	30.00123000
131.09999239	0.00000000	72.36097000	30.00123000
131.29999238	0.00000000	73.11147000	30.00123000
131.49999237	0.00000000	73.89886000	30.00123000
131.69999236	0.00000000	74.22490000	29.95817000
131.89999235	0.00000000	73.89886000	29.58292000
132.09999233	0.00000000	73.11147000	28.83858000
132.29999232	0.00000000	72.36097000	28.46333000
132.49999231	0.00000000	71.57356000	28.46333000
132.69999230	0.00000000	71.19833000	28.83858000
132.89999229	0.00000000	71.19833000	29.62598000
133.09999227	0.00000000	71.57356000	30.37647000
133.29999226	0.00000000	72.31791000	31.15772000
133.49999225	0.00000000	72.69316000	31.53297000
133.69999224	0.00000000	72.73621000	31.57603000
133.89999223	0.00000000	72.73621000	31.53297000
134.09999222	0.00000000	72.73621000	31.15772000
134.29999220	0.00000000	72.73621000	30.37647000
134.49999219	0.00000000	72.73621000	29.62598000
134.69999218	0.00000000	72.73621000	28.83858000
134.89999217	0.00000000	72.73621000	28.46333000
135.09999216	0.00000000	72.73621000	28.42027000
135.29999214	0.00000000	72.77928000	28.46333000
135.49999213	0.00000000	73.11147000	28.83858000
135.69999212	0.00000000	73.48056000	29.62598000
135.89999211	0.00000000	73.11147000	30.37647000
136.09999210	0.00000000	72.73621000	31.15772000
136.29999208	0.00000000	72.31791000	31.53297000
136.49999207	0.00000000	71.57356000	31.53297000
136.69999206	0.00000000	71.19833000	31.15772000
136.89999205	0.00000000	71.15526000	30.41954000
137.09999204	0.00000000	71.19833000	30.04429000
137.29999203	0.00000000	71.62278000	30.00123000
137.49999201	0.00000000	72.73621000	30.00123000
137.69999200	0.00000000	73.80659000	29.95817000
137.89999199	0.00000000	73.89886000	29.58292000
138.09999198	0.00000000	73.52977000	28.88779000
138.29999197	0.00000000	73.52361000	28.88779000
138.49999195	0.00000000	73.11147000	29.58292000
138.69999194	0.00000000	72.73621000	29.95817000
138.89999193	0.00000000	72.31791000	30.00123000
139.09999192	0.00000000	71.57356000	30.00123000
139.29999191	0.00000000	71.19833000	30.04429000
139.49999189	0.00000000	71.19833000	30.41954000
139.69999188	0.00000000	71.57356000	31.15772000
139.89999187	0.00000000	72.31791000	31.53297000
140.09999186	0.00000000	72.73621000	31.53297000
140.29999185	0.00000000	73.11147000	31.15772000
140.49999184	0.00000000	73.48056000	30.37647000
140.69999182	0.00000000	73.11147000	29.66904000
140.89999181	0.00000000	72.73621000	29.21383000
141.09999180	0.00000000	72.31791000	29.20767000
141.29999179	0.00000000	71.57356000	28.83858000
141.49999178	0.00000000	71.19833000	28.88779000
141.69999176	0.00000000	71.19833000	29.62598000
141.89999175	0.00000000	71.57356000	30.37647000
142.09999174	0.00000000	72.31791000	31.15772000
142.29999173	0.00000000	72.69316000	31.53297000
142.49999172	0.00000000	72.73621000	31.57603000
142.69999170	0.00000000	72.73621000	31.53297000
142.89999169	0.00000000	72.73621000	31.15772000
143.09999168	0.00000000	72.73621000	30.41954000
143.29999167	0.00000000	72.69316000	30.00123000
143.49999166	0.00000000	72.31791000	29.58292000
143.69999165	0.00000000	71.62278000	28.83858000
143.89999163	0.00000000	71.57356000	28.46333000
144.09999162	0.00000000	71.94266000	28.46333000
144.29999161	0.00000000	71.94881000	28.83858000
144.49999160	0.00000000	72.36097000	29.62598000
144.69999159	0.00000000	72.69316000	30.37647000
144.89999157	0.00000000	72.73621000	31.15772000
145.09999156	0.00000000	72.77928000	31.53297000
145.29999155	0.00000000	73.06840000	31.53297000
145.49999154	0.00000000	73.05610000	31.15772000
145.69999153	0.00000000	71.94881000	30.37647000
145.89999151	0.00000000	71.24754000	29.62598000
146.09999150	0.00000000	71.15526000	28.83858000
146.29999149	0.00000000	71.19833000	28.46333000
146.49999148	0.00000000	71.57356000	28.42027000
146.69999147	0.00000000	72.31791000	28.42027000
146.89999146	0.00000000	72.69316000	28.46333000
147.09999144	0.00000000	72.69316000	28.83858000
147.29999143	0.00000000	72.36097000	29.58292000
147.49999142	0.00000000	71.99188000	29.95817000
147.69999141	0.00000000	72.31791000	30.00123000
147.89999140	0.00000000	72.26870000	30.00123000
148.09999138	0.00000000	71.57356000	30.00123000
148.29999137	0.00000000	71.19833000	30.00123000
148.49999136	0.00000000	71.15526000	30.00123000
148.69999135	0.00000000	71.19833000	30.00123000
148.89999134	0.00000000	71.57356000	29.95817000
149.09999132	0.00000000	72.31791000	29.58292000
149.29999131	0.00000000	72.69316000	28.83858000
149.49999130	0.00000000	72.73621000	28.46333000
149.69999129	0.00000000	72.73621000	28.46333000
149.89999128	0.00000000	72.73621000	28.83858000
150.09999127	0.00000000	72.73621000	29.58292000
150.29999125	0.00000000	72.69316000	29.95817000
150.49999124	0.00000000	72.31791000	30.00123000
150.69999123	0.00000000	71.57356000	30.00123000
150.89999122	0.00000000	71.19833000	30.00123000
151.09999121	0.00000000	71.15526000	30.00123000
151.29999119	0.00000000	71.15526000	30.00123000
151.49999118	0.00000000	71.15526000	29.95817000
151.69999117	0.00000000	71.19833000	29.62598000
151.89999116	0.00000000	71.57356000	29.25689000
152.09999115	0.00000000	72.26870000	29.58292000
152.29999113	0.00000000	72.31791000	29.58292000
152.49999112	0.00000000	71.99188000	29.25689000
152.69999111	0.00000000	72.36097000	29.58292000
152.89999110	0.00000000	72.69316000	29.58292000
153.09999109	0.00000000	72.73621000	29.30610000
153.29999108	0.00000000	72.69316000	30.04429000
153.49999106	0.00000000	72.31791000	31.06545000
153.69999105	0.00000000	71.57356000	31.11466000
153.89999104	0.00000000	71.19833000	30.41954000
154.09999103	0.00000000	71.15526000	30.09350000
154.29999102	0.00000000	71.15526000	30.41954000
154.49999100	0.00000000	71.15526000	31.11466000
154.69999099	0.00000000	71.19833000	31.11466000
154.89999098	0.00000000	71.57356000	30.41954000
155.09999097	0.00000000	72.31791000	30.04429000
155.29999096	0.00000000	72.69316000	30.00123000
155.49999094	0.00000000	72.73621000	30.00123000
155.69999093	0.00000000	72.73621000	30.00123000
155.89999092	0.00000000	72.73621000	30.00123000
156.09999091	0.00000000	72.69316000	30.00123000
156.29999090	0.00000000	72.31791000	30.00123000
156.49999089	0.00000000	71.57356000	30.00123000
156.69999087	0.00000000	71.19833000	30.00123000
156.89999086	0.00000000	71.15526000	30.00123000
157.09999085	0.00000000	71.15526000	30.00123000
157.29999084	0.00000000	71.15526000	30.04429000
157.49999083	0.00000000	71.15526000	30.37647000
157.69999081	0.00000000	71.19833000	30.73942000
157.89999080	0.00000000	71.57356000	30.32726000
158.09999079	0.00000000	72.31791000	29.62598000
158.29999078	0.00000000	72.69316000	28.88779000
158.49999077	0.00000000	72.73621000	28.88779000
158.69999075	0.00000000	72.73621000	29.58292000
158.89999074	0.00000000	72.73621000	29.95817000
159.09999073	0.00000000	72.69316000	30.00123000
159.29999072	0.00000000	72.31791000	30.00123000
159.49999071	0.00000000	71.57356000	30.04429000
159.69999070	0.00000000	71.19833000	30.41954000
159.89999068	0.00000000	71.15526000	31.11466000
160.09999067	0.00000000	71.15526000	31.11466000
160.29999066	0.00000000	71.15526000	30.41954000
160.49999065	0.00000000	71.15526000	30.04429000
160.69999064	0.00000000	71.15526000	30.00123000
160.89999062	0.00000000	71.15526000	30.00123000
161.09999061	0.00000000	71.19833000	30.00123000
161.29999060	0.00000000	71.53051000	29.95817000
161.49999059	0.00000000	71.89960000	29.62598000
161.69999058	0.00000000	71.57356000	29.25689000
161.89999056	0.00000000	71.62278000	29.62598000
162.09999055	0.00000000	72.31791000	29.95817000
162.29999054	0.00000000	72.69316000	30.00123000
162.49999053	0.00000000	72.69316000	30.00123000
162.69999052	0.00000000	72.31791000	30.00123000
162.89999051	0.00000000	71.57356000	30.00123000
163.09999049	0.00000000	71.19833000	30.00123000
163.29999048	0.00000000	71.15526000	30.00123000
163.49999047	0.00000000	71.15526000	30.00123000
163.69999046	0.00000000	71.15526000	30.00123000
163.89999045	0.00000000	71.15526000	29.95817000
164.09999043	0.00000000	71.15526000	29.62598000
164.29999042	0.00000000	71.15526000	29.25689000
164.49999041	0.00000000	71.19833000	29.62598000
164.69999040	0.00000000	71.57356000	29.90895000
164.89999039	0.00000000	72.31791000	29.62598000
165.09999037	0.00000000	72.69316000	29.25689000
165.29999036	0.00000000	72.69316000	29.62598000
165.49999035	0.00000000	72.31791000	29.95817000
165.69999034	0.00000000	71.57356000	30.00123000
165.89999033	0.00000000	71.19833000	30.00123000
166.09999032	0.00000000	71.15526000	30.00123000
166.29999030	0.00000000	71.15526000	30.00123000
166.49999029	0.00000000	71.15526000	30.00123000
166.69999028	0.00000000	71.15526000	30.00123000
166.89999027	0.00000000	71.15526000	30.00123000
167.09999026	0.00000000	71.15526000	30.00123000
167.29999024	0.00000000	71.15526000	30.00123000
167.49999023	0.00000000	71.19833000	30.00123000
167.69999022	0.00000000	71.53051000	29.95817000
167.89999021	0.00000000	71.89960000	29.62598000
168.09999020	0.00000000	71.57356000	29.21383000
168.29999018	0.00000000	71.57356000	29.20767000
168.49999017	0.00000000	71.89960000	28.83858000
168.69999016	0.00000000	71.53051000	28.88779000
168.89999015	0.00000000	71.19833000	29.58292000
169.09999014	0.00000000	71.15526000	29.95817000
169.29999013	0.00000000	71.15526000	30.00123000
169.49999011	0.00000000	71.15526000	30.00123000
169.69999010	0.00000000	71.15526000	30.00123000
169.89999009	0.00000000	71.15526000	30.00123000
170.09999008	0.00000000	71.15526000	30.00123000
170.29999007	0.00000000	71.15526000	29.95817000
170.49999005	0.00000000	71.15526000	29.62598000
170.69999004	0.00000000	71.15526000	29.25689000
170.89999003	0.00000000	71.15526000	29.62598000
171.09999002	0.00000000	71.15526000	29.95817000
171.29999001	0.00000000	71.15526000	30.00123000
171.49998999	0.00000000	71.15526000	29.95817000
171.69998998	0.00000000	71.15526000	29.62598000
171.89998997	0.00000000	71.15526000	29.25689000
172.09998996	0.00000000	71.15526000	29.62598000
172.29998995	0.00000000	71.15526000	29.90895000
172.49998994	0.00000000	71.15526000	29.62598000
172.69998992	0.00000000	71.15526000	29.25689000
172.89998991	0.00000000	71.15526000	29.62598000
173.09998990	0.00000000	71.15526000	29.95817000
173.29998989	0.00000000	71.15526000	30.00123000
173.49998988	0.00000000	71.15526000	30.00123000
173.69998986	0.00000000	71.15526000	30.00123000
173.89998985	0.00000000	71.15526000	30.00123000
174.09998984	0.00000000	71.15526000	30.00123000
174.29998983	0.00000000	71.15526000	30.00123000
174.49998982	0.00000000	71.15526000	30.00123000
174.69998980	0.00000000	71.15526000	29.95817000
174.89998979	0.00000000	71.15526000	29.58292000
175.09998978	0.00000000	71.15526000	28.88779000
175.29998977	0.00000000	71.11221000	28.83858000
175.49998976	0.00000000	70.78001000	29.20767000
175.69998975	0.00000000	70.41092000	29.21383000
175.89998973	0.00000000	70.78001000	29.62598000
176.09998972	0.00000000	71.11221000	29.95817000
176.29998971	0.00000000	71.15526000	30.00123000
176.49998970	0.00000000	71.15526000	30.00123000
176.69998969	0.00000000	71.15526000	29.95817000
176.89998967	0.00000000	71.15526000	29.62598000
177.09998966	0.00000000	71.15526000	29.21383000
177.29998965	0.00000000	71.15526000	29.20767000
177.49998964	0.00000000	71.15526000	28.79552000
177.69998963	0.00000000	71.15526000	28.46333000
177.89998961	0.00000000	71.15526000	28.46333000
178.09998960	0.00000000	71.15526000	28.79552000
178.29998959	0.00000000	71.15526000	29.20767000
178.49998958	0.00000000	71.15526000	29.21383000
178.69998957	0.00000000	71.15526000	29.62598000
178.89998956	0.00000000	71.15526000	29.95817000
179.09998954	0.00000000	71.15526000	30.00123000
179.29998953	0.00000000	71.15526000	30.00123000
179.49998952	0.00000000	71.15526000	29.95817000
179.69998951	0.00000000	71.15526000	29.58292000
179.89998950	0.00000000	71.15526000	28.83858000
180.09998948	0.00000000	71.15526000	28.46333000
180.29998947	0.00000000	71.15526000	28.42027000
180.49998946	0.00000000	71.15526000	28.42027000
180.69998945	0.00000000	71.15526000	28.42027000
180.89998944	0.00000000	71.15526000	28.46333000
181.09998942	0.00000000	71.15526000	28.83858000
181.29998941	0.00000000	71.15526000	29.58292000
181.49998940	0.00000000	71.15526000	29.95817000
181.69998939	0.00000000	71.15526000	30.00123000
181.89998938	0.00000000	71.15526000	29.95817000
182.09998937	0.00000000	71.15526000	29.62598000
182.29998935	0.00000000	71.15526000	29.25689000
182.49998934	0.00000000	71.15526000	29.62598000
182.69998933	0.00000000	71.15526000	29.90895000
182.89998932	0.00000000	71.15526000	29.58292000
183.09998931	0.00000000	71.15526000	28.83858000
183.29998929	0.00000000	71.15526000	28.46333000
183.49998928	0.00000000	71.15526000	28.42027000
183.69998927	0.00000000	71.15526000	28.46333000
183.89998926	0.00000000	71.15526000	28.83858000
184.09998925	0.00000000	71.15526000	29.58292000
184.29998923	0.00000000	71.11221000	29.95817000
184.49998922	0.00000000	70.78001000	30.00123000
184.69998921	0.00000000	70.46014000	30.00123000
184.89998920	0.00000000	71.15526000	30.00123000
185.09998919	0.00000000	71.85040000	30.00123000
185.29998918	0.00000000	71.53051000	30.00123000
185.49998916	0.00000000	71.19833000	29.95817000
185.69998915	0.00000000	71.15526000	29.62598000
185.89998914	0.00000000	71.15526000	29.21383000
186.09998913	0.00000000	71.15526000	29.20767000
186.29998912	0.00000000	71.15526000	28.79552000
186.49998910	0.00000000	71.15526000	28.46333000
186.69998909	0.00000000	71.15526000	28.46333000
186.89998908	0.00000000	71.15526000	28.83858000
187.09998907	0.00000000	71.15526000	29.58292000
187.29998906	0.00000000	71.11221000	29.95817000
187.49998904	0.00000000	70.78001000	30.00123000
187.69998903	0.00000000	70.36786000	30.00123000
187.89998902	0.00000000	70.40477000	30.00123000
188.09998901	0.00000000	70.36786000	30.00123000
188.29998900	0.00000000	70.78001000	30.00123000
188.49998899	0.00000000	71.11221000	30.00123000
188.69998897	0.00000000	71.15526000	29.95817000
188.89998896	0.00000000	71.15526000	29.58292000
189.09998895	0.00000000	71.15526000	28.83858000
189.29998894	0.00000000	71.15526000	28.46333000
189.49998893	0.00000000	71.15526000	28.42027000
189.69998891	0.00000000	71.15526000	28.42027000
189.89998890	0.00000000	71.15526000	28.46333000
190.09998889	0.00000000	71.15526000	28.83858000
190.29998888	0.00000000	71.11221000	29.58292000
190.49998887	0.00000000	70.73695000	29.95817000
190.69998885	0.00000000	70.04182000	30.00123000
190.89998884	0.00000000	70.04182000	30.00123000
191.09998883	0.00000000	70.73695000	29.95817000
191.29998882	0.00000000	71.11221000	29.58292000
191.49998881	0.00000000	71.15526000	28.83858000
191.69998880	0.00000000	71.15526000	28.46333000
191.89998878	0.00000000	71.15526000	28.42027000
192.09998877	0.00000000	71.15526000	28.42027000
192.29998876	0.00000000	71.15526000	28.42027000
192.49998875	0.00000000	71.15526000	28.42027000
192.69998874	0.00000000	71.15526000	28.42027000
192.89998872	0.00000000	71.11221000	28.42027000
193.09998871	0.00000000	70.73695000	28.46333000
193.29998870	0.00000000	69.99261000	28.83858000
193.49998869	0.00000000	69.61736000	29.58292000
193.69998868	0.00000000	69.57431000	29.90895000
193.89998866	0.00000000	69.61736000	29.62598000
194.09998865	0.00000000	69.99261000	29.21383000
194.29998864	0.00000000	70.73695000	29.25074000
194.49998863	0.00000000	71.11221000	29.17077000
194.69998862	0.00000000	71.15526000	29.20767000
194.89998861	0.00000000	71.15526000	28.79552000
195.09998859	0.00000000	71.15526000	28.46333000
195.29998858	0.00000000	71.15526000	28.42027000
195.49998857	0.00000000	71.11221000	28.42027000
195.69998856	0.00000000	70.73695000	28.42027000
195.89998855	0.00000000	69.99261000	28.42027000
196.09998853	0.00000000	69.61736000	28.42027000
