Time	Channel A	Channel B	Channel C
(us)	(V)	(mV)	(mV)

-4.49999956	0.00000000	52.13459000	11.84178000
-4.29999957	0.00000000	52.17765000	12.25394000
-4.09999958	0.00000000	52.17765000	12.58612000
-3.89999959	0.00000000	52.17765000	12.62918000
-3.69999960	0.00000000	52.17765000	12.62918000
-3.49999962	0.00000000	52.17765000	12.62918000
-3.29999963	0.00000000	52.17765000	12.62918000
-3.09999964	0.00000000	52.13459000	12.62918000
-2.89999965	0.00000000	51.80241000	12.62918000
-2.69999966	0.00000000	51.43332000	12.62918000
-2.49999968	0.00000000	51.80241000	12.62918000
-2.29999969	0.00000000	52.13459000	12.62918000
-2.09999970	0.00000000	52.17765000	12.62918000
-1.89999971	0.00000000	52.17765000	12.62918000
-1.69999972	0.00000000	52.17765000	12.62918000
-1.49999973	0.00000000	52.17765000	12.62918000
-1.29999975	0.00000000	52.17765000	12.62918000
-1.09999976	0.00000000	52.17765000	12.62918000
-0.89999977	0.00000000	52.17765000	12.62918000
-0.69999978	0.00000000	52.17765000	12.62918000
-0.49999979	0.00000000	52.17765000	12.62918000
-0.29999981	0.31803640	52.17765000	12.62918000
-0.09999982	0.63668800	52.13459000	12.62918000
0.10000017	0.95533960	51.80241000	12.62918000
0.30000016	1.11466500	51.43332000	12.62918000
0.50000015	0.79601380	51.80241000	12.62918000
0.70000013	0.31803640	52.13459000	12.62918000
0.90000012	-0.47736220	52.17765000	12.62918000
1.10000011	-1.43331700	52.17765000	12.62918000
1.30000010	-2.38927200	52.17765000	12.62918000
1.50000009	-2.70792300	52.17765000	12.62918000
1.70000008	-2.38927200	52.17765000	12.62918000
1.90000006	-1.27399100	52.17765000	12.62918000
2.10000005	0.47736220	52.17765000	12.62918000
2.30000004	2.54859700	52.17765000	12.62918000
2.50000003	4.45989200	52.17765000	12.62918000
2.70000002	5.25652100	52.17765000	12.62918000
2.90000000	4.93786900	52.13459000	12.58612000
3.09999999	3.02657500	51.75935000	12.21087000
3.29999998	0.00000000	51.06422000	11.51575000
3.49999997	-3.34522600	51.06422000	11.51575000
3.69999996	-6.37180100	51.75935000	12.21087000
3.89999994	-7.80511800	52.13459000	12.58612000
4.09999993	-7.48646600	52.17765000	12.67224000
4.29999992	-5.09719500	52.17765000	13.00443000
4.49999991	-1.27399100	52.17765000	13.37352000
4.69999990	3.18590100	52.13459000	13.00443000
4.89999989	7.00848900	51.80241000	12.67224000
5.09999987	9.23905000	51.39025000	12.58612000
5.29999986	9.23905000	51.42716000	12.21087000
5.49999985	6.84916400	51.34719000	11.46653000
5.69999984	2.54859700	51.38410000	11.14050000
5.89999983	-2.22994600	51.01501000	11.46653000
6.09999981	-6.53112700	51.06422000	12.21087000
6.29999980	-9.07972400	51.75935000	12.58612000
6.49999979	-9.39837600	52.13459000	12.62918000
6.69999978	-7.32714100	52.17765000	12.62918000
6.89999977	-3.50393700	52.17765000	12.62918000
7.09999975	0.79601380	52.17765000	12.62918000
7.29999974	4.61921700	52.13459000	12.62918000
7.49999973	7.16781500	51.75935000	12.58612000
7.69999972	7.64579200	51.06422000	12.25394000
7.89999971	6.37180100	51.01501000	11.84178000
8.09999970	3.50393700	51.34104000	11.83563000
8.29999968	0.31803640	50.97194000	11.46653000
8.49999967	-2.70792300	50.68897000	11.55881000
8.69999966	-4.61921700	51.01501000	12.58612000
8.89999965	-5.25652100	51.75935000	13.28125000
9.09999964	-4.45989200	52.13459000	12.62918000
9.29999962	-2.70792300	52.17765000	11.93405000
9.49999961	-0.79601380	52.17765000	12.25394000
9.69999960	1.11466500	52.17765000	12.58612000
9.89999959	2.22994600	52.17765000	12.62918000
10.09999958	2.54859700	52.13459000	12.62918000
10.29999956	2.22994600	51.75935000	12.62918000
10.49999955	1.43331700	51.01501000	12.58612000
10.69999954	0.63668800	50.68897000	12.25394000
10.89999953	-0.15871060	51.01501000	11.88484000
11.09999952	-0.63668800	51.71013000	12.25394000
11.29999951	-0.95533960	51.75935000	12.58612000
11.49999949	-0.95533960	51.39025000	12.62918000
11.69999948	-0.79601380	51.42716000	12.62918000
11.89999947	-0.47736220	51.34719000	12.62918000
12.09999946	-0.15871060	51.38410000	12.62918000
12.29999945	-0.15871060	51.01501000	12.62918000
12.49999943	0.00000000	51.06422000	12.62918000
12.69999942	0.00000000	51.75935000	12.62918000
12.89999941	0.00000000	52.13459000	12.62918000
13.09999940	0.15871060	52.17765000	12.58612000
13.29999939	0.15871060	52.17765000	12.25394000
13.49999937	0.00000000	52.13459000	11.88484000
13.69999936	0.00000000	51.80241000	12.25394000
13.89999935	0.00000000	51.43332000	12.58612000
14.09999934	0.00000000	51.80241000	12.62918000
14.29999933	-0.15871060	52.08538000	12.62918000
14.49999932	-0.15871060	51.80241000	12.62918000
14.69999930	0.00000000	51.39025000	12.62918000
14.89999929	0.00000000	51.38410000	12.62918000
15.09999928	0.00000000	51.01501000	12.62918000
15.29999927	0.15871060	51.01501000	12.62918000
15.49999926	0.00000000	51.34104000	12.62918000
15.69999924	0.00000000	50.97194000	12.62918000
15.89999923	0.00000000	50.63976000	12.62918000
16.09999922	0.00000000	50.59670000	12.62918000
16.29999921	0.00000000	50.59670000	12.62918000
16.49999920	-0.15871060	50.59670000	12.62918000
16.69999919	0.00000000	50.63976000	12.62918000
16.89999917	0.00000000	51.06422000	12.62918000
17.09999916	0.00000000	52.17765000	12.62918000
17.29999915	0.00000000	53.29109000	12.62918000
17.49999914	0.00000000	53.66634000	12.62918000
17.69999913	0.00000000	53.34030000	12.62918000
17.89999911	0.00000000	52.55290000	12.62918000
18.09999910	0.00000000	51.75935000	12.62918000
18.29999909	0.00000000	50.55364000	12.62918000
18.49999908	0.00000000	49.01575000	12.62918000
18.69999907	0.00000000	47.47785000	12.62918000
18.89999905	0.00000000	46.36442000	12.62918000
19.09999904	0.00000000	46.36442000	12.58612000
19.29999903	0.00000000	47.57013000	12.25394000
19.49999902	0.00000000	49.90157000	11.88484000
19.69999901	0.00000000	53.42642000	12.25394000
19.89999900	0.00000000	57.25270000	12.58612000
20.09999898	0.00000000	60.73450000	12.62918000
20.29999897	0.00000000	62.59842000	12.62918000
20.49999896	0.00000000	62.18011000	12.62918000
20.69999895	0.00000000	59.01821000	12.62918000
20.89999894	0.00000000	53.20496000	12.62918000
21.09999892	0.00000000	45.85384000	12.62918000
21.29999891	0.00000000	38.50270000	12.62918000
21.49999890	0.00000000	32.77559000	12.62918000
21.69999889	0.00000000	30.54257000	12.62918000
21.89999888	0.00000000	33.28617000	12.58612000
22.09999886	0.00000000	40.68036000	12.21087000
22.29999885	0.00000000	51.56865000	11.51575000
22.49999884	0.00000000	64.31471000	11.51575000
22.69999883	0.00000000	75.81200000	12.21087000
22.89999882	0.00000000	82.70177000	12.58612000
23.09999881	0.00000000	82.60949000	12.62918000
23.29999879	0.00000000	74.84006000	12.67224000
23.49999878	0.00000000	60.51304000	13.04749000
23.69999877	0.00000000	42.73499000	13.79183000
23.89999876	0.00000000	25.38140000	14.16708000
24.09999875	0.00000000	12.72146000	14.21014000
24.29999873	0.00000000	8.48917200	14.11786000
24.49999872	0.00000000	13.92717000	13.32431000
24.69999871	0.00000000	27.93430000	11.42347000
24.89999870	0.00000000	48.45595000	9.55954600
25.09999869	0.00000000	71.16142000	8.31077700
25.29999867	0.00000000	90.05289000	7.56028500
25.49999866	0.00000000	100.47980000	7.19734200
25.69999865	0.00000000	100.05540000	8.02780400
25.89999864	0.00000000	88.42888000	9.98400600
26.09999863	0.00000000	67.95644000	13.13976000
26.29999862	0.00000000	43.24557000	17.32283000
26.49999860	0.00000000	20.07259000	21.17372000
26.69999859	0.00000000	3.88164400	23.45595000
26.89999858	0.00000000	-1.55634800	23.82505000
27.09999857	0.00000000	5.00123000	21.41363000
27.29999856	0.00000000	21.61048000	16.35089000
27.49999854	0.00000000	44.78346000	9.00590400
27.69999853	0.00000000	69.06988000	0.97194880
27.89999852	0.00000000	88.47195000	-5.20423200
28.09999851	0.00000000	99.31717000	-8.27386800
28.29999850	0.00000000	99.68626000	-7.43725300
28.49999848	0.00000000	88.89025000	-1.96235200
28.69999847	0.00000000	70.09104000	7.33267600
28.89999846	0.00000000	48.40674000	18.94685000
29.09999845	0.00000000	28.67864000	30.46875000
29.29999844	0.00000000	14.67766000	38.92716000
29.49999843	0.00000000	9.23351300	41.99680000
29.69999841	0.00000000	12.63533000	38.84104000
29.89999840	0.00000000	23.84350000	29.49680000
30.09999839	0.00000000	40.04060000	15.18824000
30.29999838	0.00000000	57.48647000	-0.97810030
30.49999837	0.00000000	72.56397000	-15.23745000
30.69999835	0.00000000	82.28346000	-24.07111000
30.89999834	0.00000000	84.65797000	-25.23376000
31.09999833	0.00000000	80.09350000	-18.26402000
31.29999832	0.00000000	70.04182000	-4.74286400
31.49999831	0.00000000	56.92052000	12.67840000
31.69999829	0.00000000	43.70694000	30.42569000
31.89999828	0.00000000	32.86171000	44.73425000
32.09999827	0.00000000	26.26107000	52.40526000
32.29999826	0.00000000	25.46752000	51.65477000
32.49999825	0.00000000	30.03199000	42.37204000
32.69999824	0.00000000	38.54576000	26.93774000
32.89999822	0.00000000	48.97269000	8.35998900
33.09999821	0.00000000	59.06742000	-9.34424200
33.29999820	0.00000000	66.79379000	-22.16412000
33.49999819	0.00000000	70.70004000	-27.55905000
33.69999818	0.00000000	69.95570000	-24.90157000
33.89999816	0.00000000	65.34202000	-14.45620000
34.09999815	0.00000000	57.99089000	0.97194880
34.29999814	0.00000000	49.52633000	18.39321000
34.49999813	0.00000000	42.17519000	34.19045000
34.69999812	0.00000000	37.52460000	44.64198000
34.89999810	0.00000000	36.36196000	47.76082000
35.09999809	0.00000000	39.05635000	43.15945000
35.29999808	0.00000000	44.78346000	31.95743000
35.49999807	0.00000000	51.66707000	16.90453000
35.69999806	0.00000000	57.43725000	1.10728300
35.89999805	0.00000000	60.55610000	-11.57726000
36.09999803	0.00000000	60.59916000	-17.80266000
36.29999802	0.00000000	57.94783000	-16.68922000
36.49999801	0.00000000	53.66634000	-9.01820900
36.69999800	0.00000000	48.68356000	3.24803100
36.89999799	0.00000000	44.08833000	16.30167000
37.09999797	0.00000000	41.75689000	26.75935000
37.29999796	0.00000000	41.70767000	32.56643000
37.49999795	0.00000000	43.71309000	32.60949000
37.69999794	0.00000000	47.94537000	27.22072000
37.89999793	0.00000000	53.24803000	18.01796000
38.09999791	0.00000000	57.52953000	7.28961600
38.29999790	0.00000000	59.85482000	-1.45177200
38.49999789	0.00000000	60.26698000	-5.34571800
38.69999788	0.00000000	58.32308000	-3.45103300
38.89999787	0.00000000	54.87204000	3.05733300
39.09999786	0.00000000	50.59670000	12.62918000
39.29999784	0.00000000	46.36442000	22.15797000
39.49999783	0.00000000	43.24557000	28.29109000
39.69999782	0.00000000	41.66461000	29.49680000
39.89999781	0.00000000	41.70767000	25.59670000
40.09999780	0.00000000	43.62082000	17.55044000
40.29999778	0.00000000	47.10260000	7.19734200
40.49999777	0.00000000	50.97194000	-1.96235200
40.69999776	0.00000000	54.87204000	-7.30191900
40.89999775	0.00000000	57.94783000	-6.92667200
41.09999774	0.00000000	59.52879000	-0.84276570
41.29999772	0.00000000	59.57185000	8.35998900
41.49999771	0.00000000	58.36614000	18.39321000
41.69999770	0.00000000	56.03469000	26.84547000
41.89999769	0.00000000	52.55290000	31.49606000
42.09999768	0.00000000	49.10802000	31.49606000
42.29999767	0.00000000	46.32135000	26.84547000
42.49999765	0.00000000	44.40821000	18.43627000
42.69999764	0.00000000	43.62082000	8.86441900
42.89999763	0.00000000	44.40821000	1.15034400
43.09999762	0.00000000	46.27214000	-3.16190900
43.29999761	0.00000000	48.59744000	-3.58021600
43.49999759	0.00000000	50.55364000	-0.51673230
43.69999758	0.00000000	52.13459000	5.24729300
43.89999757	0.00000000	53.29109000	12.16781000
44.09999756	0.00000000	53.71555000	18.30093000
44.29999755	0.00000000	53.75861000	22.20103000
44.49999753	0.00000000	53.80167000	23.03765000
44.69999752	0.00000000	54.17691000	21.54897000
44.89999751	0.00000000	54.92125000	18.43627000
45.09999750	0.00000000	55.24729000	14.21014000
45.29999749	0.00000000	54.82898000	9.98400600
45.49999748	0.00000000	53.24803000	6.86515700
45.69999746	0.00000000	50.55364000	5.29035400
45.89999745	0.00000000	47.39173000	5.29035400
46.09999744	0.00000000	43.89763000	6.77903500
46.29999743	0.00000000	40.50196000	9.09817800
46.49999742	0.00000000	39.01329000	11.42347000
46.69999740	0.00000000	40.17593000	13.79183000
46.89999739	0.00000000	43.71309000	15.64960000
47.09999738	0.00000000	49.52633000	16.43701000
47.29999737	0.00000000	56.45300000	15.69882000
47.49999736	0.00000000	62.60457000	14.21014000
47.69999734	0.00000000	66.46161000	12.58612000
47.89999733	0.00000000	66.83685000	10.62992000
48.09999732	0.00000000	63.71801000	8.35383800
48.29999731	0.00000000	57.48031000	6.86515700
48.49999730	0.00000000	48.97269000	6.82209600
48.69999729	0.00000000	40.12672000	7.98474400
48.89999727	0.00000000	33.23696000	9.93479300
49.09999726	0.00000000	30.54257000	12.67224000
49.29999725	0.00000000	32.81865000	15.69882000
49.49999724	0.00000000	39.01329000	18.01796000
49.69999723	0.00000000	47.90231000	18.81152000
49.89999721	0.00000000	57.57259000	18.43627000
50.09999720	0.00000000	65.63115000	16.76919000
50.29999719	0.00000000	70.27559000	13.32431000
50.49999718	0.00000000	69.86343000	8.77829600
50.69999717	0.00000000	64.88066000	5.33341500
50.89999715	0.00000000	56.40993000	3.70939900
51.09999714	0.00000000	46.78272000	3.75246000
51.29999713	0.00000000	38.72416000	5.70866100
51.49999712	0.00000000	34.07972000	9.56569900
51.69999711	0.00000000	34.44881000	14.16708000
51.89999710	0.00000000	38.96407000	18.39321000
52.09999708	0.00000000	45.94611000	21.08760000
52.29999707	0.00000000	53.62328000	21.50590000
52.49999706	0.00000000	60.18085000	19.97416000
52.69999705	0.00000000	63.66880000	16.85531000
52.89999704	0.00000000	63.66880000	12.62918000
53.09999702	0.00000000	60.22392000	8.44611200
53.29999701	0.00000000	54.09079000	5.70866100
53.49999700	0.00000000	47.57013000	4.91510800
53.69999699	0.00000000	42.17519000	5.66560000
53.89999698	0.00000000	39.52387000	7.98474400
54.09999696	0.00000000	40.59424000	11.00517000
54.29999695	0.00000000	44.40821000	13.69956000
54.49999694	0.00000000	49.39099000	15.27436000
54.69999693	0.00000000	54.41068000	15.64960000
54.89999692	0.00000000	57.85556000	14.90526000
55.09999691	0.00000000	59.06127000	13.00443000
55.29999689	0.00000000	57.90477000	11.14050000
55.49999688	0.00000000	54.82898000	9.98400600
55.69999687	0.00000000	50.59670000	10.02707000
55.89999686	0.00000000	46.40748000	11.51575000
56.09999685	0.00000000	43.71309000	13.79183000
56.29999683	0.00000000	43.28863000	15.64960000
56.49999682	0.00000000	44.82652000	16.39395000
56.69999681	0.00000000	47.90231000	15.23130000
56.89999680	0.00000000	51.71013000	12.58612000
57.09999679	0.00000000	54.78592000	9.47342500
57.29999677	0.00000000	56.36687000	6.36072800
57.49999676	0.00000000	56.36687000	3.70939900
57.69999675	0.00000000	54.82898000	2.59596400
57.89999674	0.00000000	52.17765000	3.88779500
58.09999673	0.00000000	49.48326000	8.07701800
58.29999672	0.00000000	47.52707000	14.57308000
58.49999670	0.00000000	46.36442000	20.30020000
58.69999669	0.00000000	46.40748000	24.20029000
58.89999668	0.00000000	47.90231000	25.31373000
59.09999667	0.00000000	50.17839000	22.99459000
59.29999666	0.00000000	52.08538000	17.97490000
59.49999664	0.00000000	53.24803000	11.00517000
59.69999663	0.00000000	53.24803000	3.75246000
59.89999662	0.00000000	52.17765000	-1.63016700
60.09999661	0.00000000	51.01501000	-3.53715500
60.29999660	0.00000000	50.17839000	-1.63016700
60.49999658	0.00000000	49.01575000	3.80167300
60.69999657	0.00000000	47.94537000	11.46653000
60.89999656	0.00000000	47.94537000	19.54970000
61.09999655	0.00000000	49.10802000	25.73203000
61.29999654	0.00000000	50.97194000	28.80167000
61.49999653	0.00000000	52.87278000	28.00812000
61.69999651	0.00000000	53.66634000	22.99459000
61.89999650	0.00000000	53.66634000	15.27436000
62.09999649	0.00000000	52.87278000	6.44685000
62.29999648	0.00000000	50.92888000	-1.21186000
62.49999647	0.00000000	48.68356000	-5.06889700
62.69999645	0.00000000	46.69045000	-4.78592500
62.89999644	0.00000000	45.57086000	-0.88582670
63.09999643	0.00000000	45.20177000	5.66560000
63.29999642	0.00000000	46.40748000	13.79183000
63.49999641	0.00000000	49.01575000	21.41363000
63.69999639	0.00000000	51.75935000	26.47638000
63.89999638	0.00000000	54.09079000	27.68824000
64.09999637	0.00000000	55.99163000	25.77510000
64.29999636	0.00000000	56.36687000	21.08760000
64.49999635	0.00000000	55.20423000	14.21014000
64.69999634	0.00000000	52.92200000	7.28346400
64.89999632	0.00000000	49.85236000	2.22071800
65.09999631	0.00000000	47.52707000	-0.55979330
65.29999630	0.00000000	45.94611000	-0.93503930
65.49999629	0.00000000	45.20177000	0.97194880
65.69999628	0.00000000	45.98917000	4.82898600
65.89999626	0.00000000	47.90231000	9.47342500
66.09999625	0.00000000	50.55364000	14.16708000
66.29999624	0.00000000	52.82972000	18.39321000
66.49999623	0.00000000	53.62328000	21.13066000
66.69999622	0.00000000	53.29109000	21.96727000
66.89999620	0.00000000	52.13459000	21.59203000
67.09999619	0.00000000	50.59670000	20.01722000
67.29999618	0.00000000	49.05881000	17.27977000
67.49999617	0.00000000	47.94537000	13.79183000
67.69999616	0.00000000	47.98843000	9.89173200
67.89999615	0.00000000	49.48326000	6.40378900
68.09999613	0.00000000	51.75935000	3.66633800
68.29999612	0.00000000	53.66634000	2.12844500
68.49999611	0.00000000	54.82898000	2.12844500
68.69999610	0.00000000	54.78592000	3.70939900
68.89999609	0.00000000	53.24803000	6.82209600
69.09999607	0.00000000	50.50443000	11.09129000
69.29999606	0.00000000	47.05954000	15.74188000
69.49999605	0.00000000	43.62082000	19.97416000
69.69999604	0.00000000	41.75689000	22.66855000
69.89999603	0.00000000	42.13213000	23.08686000
70.09999601	0.00000000	44.82652000	21.50590000
70.29999600	0.00000000	49.05881000	18.01796000
70.49999599	0.00000000	53.71555000	13.00443000
70.69999598	0.00000000	57.94783000	7.98474400
70.89999597	0.00000000	60.64222000	3.70939900
71.09999596	0.00000000	61.01746000	1.01501000
71.29999594	0.00000000	59.06127000	0.63976370
71.49999593	0.00000000	54.78592000	2.54675200
71.69999592	0.00000000	49.05881000	6.44685000
71.89999591	0.00000000	43.66388000	11.42347000
72.09999590	0.00000000	40.12672000	16.39395000
72.29999588	0.00000000	38.54576000	19.50664000
72.49999587	0.00000000	39.01329000	20.34941000
72.69999586	0.00000000	42.13213000	19.55585000
72.89999585	0.00000000	47.47785000	16.85531000
73.09999584	0.00000000	53.24803000	13.09670000
73.29999582	0.00000000	57.90477000	10.02707000
73.49999581	0.00000000	60.59916000	8.40305000
73.69999580	0.00000000	60.64222000	8.02780400
73.89999579	0.00000000	58.36614000	8.77214500
74.09999578	0.00000000	54.87204000	10.67298000
74.29999577	0.00000000	50.59670000	12.49385000
74.49999575	0.00000000	46.36442000	13.28125000
74.69999574	0.00000000	43.28863000	12.53691000
74.89999573	0.00000000	42.08292000	11.04823000
75.09999572	0.00000000	42.87032000	9.51648500
75.29999571	0.00000000	45.10950000	8.35998900
75.49999569	0.00000000	48.22219000	8.02780400
75.69999568	0.00000000	50.92888000	8.82135800
75.89999567	0.00000000	53.29109000	11.14050000
76.09999566	0.00000000	54.78592000	14.21014000
76.29999565	0.00000000	54.82898000	17.27977000
76.49999563	0.00000000	53.71555000	19.55585000
76.69999562	0.00000000	52.22071000	19.93110000
76.89999561	0.00000000	51.01501000	18.35015000
77.09999560	0.00000000	50.26451000	14.85605000
77.29999559	0.00000000	49.85236000	9.84867000
77.49999558	0.00000000	50.22145000	4.87204700
77.69999556	0.00000000	50.55364000	1.02116100
77.89999555	0.00000000	50.55364000	-0.51673230
78.09999554	0.00000000	50.12918000	0.64591530
78.29999553	0.00000000	49.01575000	4.12770700
78.49999552	0.00000000	47.85310000	9.55954600
78.69999550	0.00000000	47.10260000	15.69882000
78.89999549	0.00000000	46.73966000	21.08760000
79.09999548	0.00000000	47.52707000	24.15723000
79.29999547	0.00000000	49.01575000	24.24335000
79.49999546	0.00000000	50.63976000	21.92421000
79.69999544	0.00000000	52.55290000	18.01796000
79.89999543	0.00000000	54.45374000	12.62918000
80.09999542	0.00000000	55.16117000	7.24040300
80.29999541	0.00000000	54.45374000	3.33415300
80.49999540	0.00000000	52.50984000	0.97194880
80.69999539	0.00000000	50.17839000	0.63976370
80.89999537	0.00000000	47.47785000	2.50369100
81.09999536	0.00000000	45.20177000	5.98548200
81.29999535	0.00000000	44.45127000	9.89173200
81.49999534	0.00000000	45.15871000	14.16708000
81.69999533	0.00000000	47.10260000	18.01796000
81.89999531	0.00000000	49.39099000	20.34941000
82.09999530	0.00000000	51.75935000	21.17372000
82.29999529	0.00000000	53.62328000	20.39247000
82.49999528	0.00000000	54.45374000	18.43627000
82.69999527	0.00000000	54.09079000	15.32357000
82.89999525	0.00000000	53.29109000	11.46653000
83.09999524	0.00000000	51.71013000	7.93553100
83.29999523	0.00000000	49.48326000	4.82283400
83.49999522	0.00000000	47.94537000	2.54675200
83.69999521	0.00000000	47.52707000	2.12844500
83.89999520	0.00000000	47.85310000	3.29109200
84.09999518	0.00000000	48.59744000	5.66560000
84.29999517	0.00000000	48.97269000	9.56569900
84.49999516	0.00000000	49.01575000	14.16708000
84.69999515	0.00000000	49.05881000	18.43627000
84.89999514	0.00000000	49.39099000	21.50590000
85.09999512	0.00000000	49.80315000	22.66240000
85.29999511	0.00000000	49.80930000	21.50590000
85.49999510	0.00000000	50.26451000	18.39321000
85.69999509	0.00000000	50.97194000	13.74262000
85.89999508	0.00000000	51.75935000	8.35998900
86.09999506	0.00000000	52.13459000	3.75246000
86.29999505	0.00000000	52.13459000	0.97194880
86.49999504	0.00000000	51.71013000	0.22145670
86.69999503	0.00000000	50.55364000	1.43946800
86.89999502	0.00000000	49.01575000	5.29035400
87.09999501	0.00000000	47.47785000	10.62992000
87.29999499	0.00000000	46.32135000	15.64960000
87.49999498	0.00000000	45.94611000	19.54970000
87.69999497	0.00000000	46.36442000	21.46284000
87.89999496	0.00000000	47.90231000	21.08760000
88.09999495	0.00000000	50.17839000	18.39321000
88.29999493	0.00000000	52.13459000	14.16708000
88.49999492	0.00000000	53.66634000	9.51648500
88.69999491	0.00000000	54.41068000	5.29035400
88.89999490	0.00000000	53.66634000	2.63902500
89.09999489	0.00000000	52.13459000	2.63902500
89.29999487	0.00000000	50.17839000	5.29035400
89.49999486	0.00000000	47.90231000	9.51648500
89.69999485	0.00000000	46.36442000	14.11786000
89.89999484	0.00000000	45.94611000	17.97490000
90.09999483	0.00000000	46.32135000	19.93110000
90.29999482	0.00000000	47.47785000	19.93110000
90.49999480	0.00000000	49.05881000	17.97490000
90.69999479	0.00000000	50.92888000	14.11786000
90.89999478	0.00000000	52.45448000	9.56569900
91.09999477	0.00000000	52.50984000	5.75172200
91.29999476	0.00000000	52.22071000	4.17691900
91.49999474	0.00000000	52.13459000	4.91510800
91.69999473	0.00000000	51.75935000	7.24040300
91.89999472	0.00000000	51.01501000	11.09129000
92.09999471	0.00000000	50.63976000	15.32357000
92.29999470	0.00000000	50.59670000	18.76845000
92.49999468	0.00000000	50.59670000	20.66929000
92.69999467	0.00000000	50.55364000	19.83883000
92.89999466	0.00000000	50.12918000	16.43701000
93.09999465	0.00000000	49.01575000	11.46653000
93.29999464	0.00000000	47.90231000	6.86515700
93.49999463	0.00000000	47.47785000	3.79552100
93.69999461	0.00000000	47.47785000	3.01427100
93.89999460	0.00000000	47.90231000	4.91510800
94.09999459	0.00000000	49.05881000	8.35998900
94.29999458	0.00000000	50.59670000	12.62918000
94.49999457	0.00000000	52.17765000	16.81225000
94.69999455	0.00000000	53.71555000	19.46358000
94.89999454	0.00000000	54.82898000	19.46358000
95.09999453	0.00000000	54.78592000	16.85531000
95.29999452	0.00000000	53.24803000	13.00443000
95.49999451	0.00000000	50.55364000	9.14124000
95.69999449	0.00000000	47.47785000	5.66560000
95.89999448	0.00000000	44.74040000	3.80167300
96.09999447	0.00000000	42.82726000	4.17076700
96.29999446	0.00000000	42.08292000	6.82209600
96.49999445	0.00000000	43.24557000	10.62992000
96.69999444	0.00000000	45.94611000	14.07480000
96.89999442	0.00000000	49.43405000	16.43701000
97.09999441	0.00000000	53.29109000	17.18750000
97.29999440	0.00000000	56.36687000	16.43701000
97.49999439	0.00000000	57.94783000	14.11786000
97.69999438	0.00000000	57.94783000	11.14050000
97.89999436	0.00000000	56.36687000	8.77214500
98.09999435	0.00000000	53.24803000	7.60949800
98.29999434	0.00000000	49.01575000	7.19734200
98.49999433	0.00000000	44.78346000	7.98474400
98.69999432	0.00000000	41.70767000	9.47342500
98.89999430	0.00000000	40.50196000	11.04823000
99.09999429	0.00000000	41.28937000	12.58612000
99.29999428	0.00000000	43.57775000	13.69956000
99.49999427	0.00000000	47.10260000	13.74262000
99.69999426	0.00000000	50.92888000	13.04749000
99.89999425	0.00000000	54.45374000	12.67224000
100.09999423	0.00000000	56.74212000	12.62918000
100.29999422	0.00000000	57.57259000	12.67224000
100.49999421	0.00000000	56.78519000	13.00443000
100.69999420	0.00000000	54.87204000	13.37352000
100.89999419	0.00000000	52.13459000	13.00443000
101.09999417	0.00000000	49.01575000	12.62918000
101.29999416	0.00000000	45.94611000	12.16166000
101.49999415	0.00000000	43.62082000	11.00517000
101.69999414	0.00000000	42.87032000	9.51648500
101.89999413	0.00000000	43.57775000	8.40305000
102.09999411	0.00000000	45.52165000	8.40305000
102.29999410	0.00000000	47.85310000	9.55954600
102.49999409	0.00000000	50.59670000	11.46653000
102.69999408	0.00000000	53.24803000	13.79183000
102.89999407	0.00000000	54.82898000	15.69882000
103.09999406	0.00000000	55.24729000	16.85531000
103.29999404	0.00000000	54.82898000	16.85531000
103.49999403	0.00000000	53.29109000	15.69882000
103.69999402	0.00000000	51.01501000	13.74262000
103.89999401	0.00000000	49.05881000	11.04823000
104.09999400	0.00000000	47.47785000	8.35383800
104.29999398	0.00000000	46.32135000	6.44685000
104.49999397	0.00000000	45.94611000	5.70866100
104.69999396	0.00000000	46.32135000	6.82209600
104.89999395	0.00000000	47.47785000	9.09817800
105.09999394	0.00000000	49.01575000	11.46653000
105.29999392	0.00000000	50.55364000	14.16092000
105.49999391	0.00000000	51.71013000	16.39395000
105.69999390	0.00000000	52.08538000	16.76919000
105.89999389	0.00000000	51.75935000	15.32357000
106.09999388	0.00000000	50.97194000	13.04749000
106.29999387	0.00000000	50.17839000	11.09744000
106.49999385	0.00000000	49.01575000	9.51648500
106.69999384	0.00000000	47.94537000	8.40305000
106.89999383	0.00000000	47.85310000	8.40305000
107.09999382	0.00000000	48.26525000	9.47342500
107.29999381	0.00000000	48.69586000	10.67298000
107.49999379	0.00000000	50.22145000	11.88484000
107.69999378	0.00000000	51.62401000	13.74262000
107.89999377	0.00000000	51.71013000	14.81299000
108.09999376	0.00000000	50.97194000	14.11786000
108.29999375	0.00000000	50.17839000	12.62918000
108.49999374	0.00000000	49.01575000	11.04823000
108.69999372	0.00000000	47.85310000	9.51648500
108.89999371	0.00000000	47.10260000	8.35998900
109.09999370	0.00000000	46.73966000	7.98474400
109.29999369	0.00000000	47.52707000	8.40305000
109.49999368	0.00000000	49.01575000	9.93479300
109.69999366	0.00000000	50.55364000	12.21087000
109.89999365	0.00000000	51.71013000	14.11786000
110.09999364	0.00000000	52.13459000	15.27436000
110.29999363	0.00000000	52.13459000	15.27436000
110.49999362	0.00000000	51.71013000	14.16092000
110.69999360	0.00000000	50.55364000	12.62918000
110.89999359	0.00000000	49.05881000	11.04823000
111.09999358	0.00000000	47.85310000	9.51648500
111.29999357	0.00000000	47.10260000	8.35998900
111.49999356	0.00000000	46.73966000	7.98474400
111.69999355	0.00000000	47.47785000	8.35998900
111.89999353	0.00000000	48.59744000	9.51648500
112.09999352	0.00000000	49.39099000	11.00517000
112.29999351	0.00000000	50.17839000	12.21087000
112.49999350	0.00000000	50.55364000	13.00443000
112.69999349	0.00000000	50.59670000	13.74262000
112.89999347	0.00000000	50.55364000	13.74262000
113.09999346	0.00000000	50.17839000	13.00443000
113.29999345	0.00000000	49.43405000	12.25394000
113.49999344	0.00000000	49.01575000	11.46653000
113.69999343	0.00000000	48.64050000	11.09129000
113.89999341	0.00000000	48.22834000	11.04823000
114.09999340	0.00000000	48.26525000	11.04823000
114.29999339	0.00000000	48.22834000	11.00517000
114.49999338	0.00000000	48.68356000	10.67298000
114.69999337	0.00000000	49.39099000	10.26698000
114.89999336	0.00000000	50.17839000	10.25467000
115.09999334	0.00000000	50.55364000	9.84867000
115.29999333	0.00000000	50.59670000	9.56569900
115.49999332	0.00000000	50.55364000	9.89173200
115.69999331	0.00000000	50.17839000	10.62992000
115.89999330	0.00000000	49.43405000	11.04823000
116.09999328	0.00000000	49.05881000	11.46653000
116.29999327	0.00000000	48.97269000	12.21087000
116.49999326	0.00000000	48.59744000	12.58612000
116.69999325	0.00000000	47.90231000	12.62918000
116.89999324	0.00000000	47.90231000	12.62918000
117.09999322	0.00000000	48.64050000	12.58612000
117.29999321	0.00000000	49.39099000	12.21087000
117.49999320	0.00000000	50.17839000	11.42347000
117.69999319	0.00000000	50.59670000	10.67298000
117.89999318	0.00000000	51.01501000	9.89173200
118.09999317	0.00000000	51.71013000	9.51648500
118.29999315	0.00000000	51.71013000	9.51648500
118.49999314	0.00000000	50.97194000	9.89173200
118.69999313	0.00000000	50.17839000	10.67298000
118.89999312	0.00000000	49.01575000	11.42347000
119.09999311	0.00000000	47.85310000	12.21087000
119.29999309	0.00000000	47.10260000	12.62918000
119.49999308	0.00000000	46.69045000	13.00443000
119.69999307	0.00000000	47.10260000	13.37352000
119.89999306	0.00000000	47.85310000	13.00443000
120.09999305	0.00000000	49.05881000	12.67224000
120.29999303	0.00000000	50.59670000	12.58612000
120.49999302	0.00000000	52.08538000	12.21087000
120.69999301	0.00000000	52.87278000	11.46653000
120.89999300	0.00000000	52.50984000	11.04823000
121.09999299	0.00000000	51.75935000	10.62992000
121.29999298	0.00000000	50.59670000	9.89173200
121.49999296	0.00000000	49.43405000	9.51648500
121.69999295	0.00000000	48.59744000	9.51648500
121.89999294	0.00000000	47.43479000	9.89173200
122.09999293	0.00000000	46.36442000	10.62992000
122.29999292	0.00000000	46.32135000	11.04823000
122.49999290	0.00000000	47.05954000	11.46653000
122.69999289	0.00000000	47.81004000	12.21087000
122.89999288	0.00000000	48.64050000	12.58612000
123.09999287	0.00000000	49.39099000	12.62918000
123.29999286	0.00000000	50.17839000	12.62918000
123.49999284	0.00000000	50.59670000	12.62918000
123.69999283	0.00000000	50.97194000	12.53691000
123.89999282	0.00000000	51.34104000	11.79257000
124.09999281	0.00000000	50.92888000	10.31004000
124.29999280	0.00000000	50.22145000	9.56569900
124.49999279	0.00000000	49.39099000	9.47342500
124.69999277	0.00000000	48.64050000	9.51648500
124.89999276	0.00000000	47.85310000	9.93479300
125.09999275	0.00000000	47.47785000	11.04823000
125.29999274	0.00000000	47.43479000	12.16166000
125.49999273	0.00000000	47.43479000	12.58612000
125.69999271	0.00000000	47.47785000	12.62918000
125.89999270	0.00000000	47.90231000	12.62918000
126.09999269	0.00000000	49.01575000	12.62918000
126.29999268	0.00000000	50.17839000	12.58612000
126.49999267	0.00000000	50.97194000	12.21087000
126.69999265	0.00000000	51.71013000	11.46653000
126.89999264	0.00000000	51.71013000	11.09129000
127.09999263	0.00000000	50.97194000	11.04823000
127.29999262	0.00000000	50.17839000	11.04823000
127.49999261	0.00000000	49.01575000	11.00517000
127.69999260	0.00000000	47.90231000	10.67298000
127.89999258	0.00000000	47.47785000	10.31004000
128.09999257	0.00000000	47.43479000	10.72219000
128.29999256	0.00000000	47.47785000	11.38041000
128.49999255	0.00000000	47.90231000	11.83563000
128.69999254	0.00000000	49.01575000	11.84178000
128.89999252	0.00000000	50.17839000	12.21087000
129.09999251	0.00000000	50.92888000	12.16166000
129.29999250	0.00000000	51.34104000	11.46653000
129.49999249	0.00000000	50.92888000	11.09129000
129.69999248	0.00000000	50.17839000	11.04823000
129.89999246	0.00000000	49.01575000	11.04823000
130.09999245	0.00000000	47.90231000	11.04823000
130.29999244	0.00000000	47.47785000	11.04823000
130.49999243	0.00000000	47.43479000	11.04823000
130.69999242	0.00000000	47.47785000	11.09129000
130.89999241	0.00000000	47.90231000	11.46653000
131.09999239	0.00000000	49.01575000	12.21087000
131.29999238	0.00000000	50.12918000	12.53691000
131.49999237	0.00000000	50.55364000	12.21087000
131.69999236	0.00000000	50.59670000	11.42347000
131.89999235	0.00000000	50.55364000	10.67298000
132.09999233	0.00000000	50.17839000	9.89173200
132.29999232	0.00000000	49.39099000	9.51648500
132.49999231	0.00000000	48.64050000	9.51648500
132.69999230	0.00000000	47.85310000	9.89173200
132.89999229	0.00000000	47.52707000	10.67298000
133.09999227	0.00000000	47.85310000	11.42347000
133.29999226	0.00000000	48.59744000	12.25394000
133.49999225	0.00000000	49.01575000	13.00443000
133.69999224	0.00000000	49.39099000	13.74262000
133.89999223	0.00000000	49.76009000	13.74262000
134.09999222	0.00000000	49.39099000	13.00443000
134.29999220	0.00000000	49.05881000	12.21087000
134.49999219	0.00000000	49.01575000	11.04823000
134.69999218	0.00000000	49.01575000	9.93479300
134.89999217	0.00000000	49.01575000	9.51648500
135.09999216	0.00000000	49.01575000	9.47342500
135.29999214	0.00000000	49.01575000	9.47342500
135.49999213	0.00000000	49.05881000	9.51648500
135.69999212	0.00000000	49.39099000	9.89173200
135.89999211	0.00000000	49.76009000	10.67298000
136.09999210	0.00000000	49.39099000	11.42347000
136.29999208	0.00000000	49.01575000	12.21087000
136.49999207	0.00000000	48.59744000	12.58612000
136.69999206	0.00000000	47.85310000	12.62918000
136.89999205	0.00000000	47.47785000	12.58612000
137.09999204	0.00000000	47.47785000	12.21087000
137.29999203	0.00000000	47.85310000	11.46653000
137.49999201	0.00000000	48.64050000	11.04823000
137.69999200	0.00000000	49.39099000	10.62992000
137.89999199	0.00000000	50.17839000	9.89173200
138.09999198	0.00000000	50.55364000	9.51648500
138.29999197	0.00000000	50.55364000	9.47342500
138.49999195	0.00000000	50.17839000	9.47342500
138.69999194	0.00000000	49.39099000	9.51648500
138.89999193	0.00000000	48.64050000	9.93479300
139.09999192	0.00000000	47.85310000	11.04823000
139.29999191	0.00000000	47.47785000	12.16166000
139.49999189	0.00000000	47.47785000	12.58612000
139.69999188	0.00000000	47.85310000	12.62918000
139.89999187	0.00000000	48.59744000	12.62918000
140.09999186	0.00000000	49.01575000	12.58612000
140.29999185	0.00000000	49.43405000	12.21087000
140.49999184	0.00000000	50.12918000	11.42347000
140.69999182	0.00000000	50.12918000	10.67298000
140.89999181	0.00000000	49.43405000	9.89173200
141.09999180	0.00000000	49.05881000	9.51648500
141.29999179	0.00000000	48.97269000	9.47342500
141.49999178	0.00000000	48.59744000	9.51648500
141.69999176	0.00000000	47.90231000	9.93479300
141.89999175	0.00000000	47.90231000	11.04823000
142.09999174	0.00000000	48.59744000	12.21087000
142.29999173	0.00000000	48.97269000	12.96137000
142.49999172	0.00000000	49.05881000	13.37352000
142.69999170	0.00000000	49.39099000	12.96137000
142.89999169	0.00000000	49.76009000	12.25394000
143.09999168	0.00000000	49.39099000	11.42347000
143.29999167	0.00000000	49.05881000	10.67298000
143.49999166	0.00000000	49.01575000	9.89173200
143.69999165	0.00000000	48.97269000	9.51648500
143.89999163	0.00000000	48.64050000	9.47342500
144.09999162	0.00000000	48.27140000	9.51648500
144.29999161	0.00000000	48.64050000	9.93479300
144.49999160	0.00000000	48.97269000	11.04823000
144.69999159	0.00000000	49.01575000	12.16166000
144.89999157	0.00000000	49.05881000	12.58612000
145.09999156	0.00000000	49.39099000	12.62918000
145.29999155	0.00000000	49.76009000	12.62918000
145.49999154	0.00000000	49.39099000	12.58612000
145.69999153	0.00000000	49.01575000	12.21087000
145.89999151	0.00000000	48.59744000	11.42347000
146.09999150	0.00000000	47.85310000	10.67298000
146.29999149	0.00000000	47.52707000	9.89173200
146.49999148	0.00000000	47.85310000	9.56569900
146.69999147	0.00000000	48.59744000	9.89173200
146.89999146	0.00000000	48.97269000	10.62992000
147.09999144	0.00000000	49.01575000	11.00517000
147.29999143	0.00000000	49.01575000	11.09129000
147.49999142	0.00000000	49.01575000	11.46653000
147.69999141	0.00000000	49.01575000	12.21087000
147.89999140	0.00000000	48.97269000	12.53691000
148.09999138	0.00000000	48.59744000	12.21087000
148.29999137	0.00000000	47.85310000	11.51575000
148.49999136	0.00000000	47.47785000	11.46653000
148.69999135	0.00000000	47.47785000	11.79257000
148.89999134	0.00000000	47.85310000	11.42347000
149.09999132	0.00000000	48.59744000	11.09129000
149.29999131	0.00000000	49.01575000	11.00517000
149.49999130	0.00000000	49.39099000	10.62992000
149.69999129	0.00000000	49.76009000	9.93479300
149.89999128	0.00000000	49.39099000	9.93479300
150.09999127	0.00000000	49.05881000	10.62992000
150.29999125	0.00000000	49.01575000	11.00517000
150.49999124	0.00000000	49.01575000	11.09129000
150.69999123	0.00000000	49.01575000	11.46653000
150.89999122	0.00000000	48.97269000	12.21087000
151.09999121	0.00000000	48.59744000	12.53691000
151.29999119	0.00000000	47.85310000	12.21087000
151.49999118	0.00000000	47.47785000	11.46653000
151.69999117	0.00000000	47.47785000	11.09129000
151.89999116	0.00000000	47.85310000	11.04823000
152.09999115	0.00000000	48.59744000	11.04823000
152.29999113	0.00000000	49.01575000	11.04823000
152.49999112	0.00000000	49.39099000	11.04823000
152.69999111	0.00000000	49.76009000	11.04823000
152.89999110	0.00000000	49.39099000	11.04823000
153.09999109	0.00000000	49.05881000	11.04823000
153.29999108	0.00000000	49.01575000	11.04823000
153.49999106	0.00000000	48.97269000	11.04823000
153.69999105	0.00000000	48.59744000	11.04823000
153.89999104	0.00000000	47.85310000	11.04823000
154.09999103	0.00000000	47.47785000	11.04823000
154.29999102	0.00000000	47.43479000	11.04823000
154.49999100	0.00000000	47.43479000	11.04823000
154.69999099	0.00000000	47.43479000	11.04823000
154.89999098	0.00000000	47.47785000	11.04823000
155.09999097	0.00000000	47.85310000	11.04823000
155.29999096	0.00000000	48.59744000	11.04823000
155.49999094	0.00000000	48.97269000	11.04823000
155.69999093	0.00000000	49.01575000	11.04823000
155.89999092	0.00000000	49.01575000	11.04823000
156.09999091	0.00000000	49.01575000	11.04823000
156.29999090	0.00000000	49.01575000	11.04823000
156.49999089	0.00000000	48.97269000	11.09129000
156.69999087	0.00000000	48.59744000	11.42347000
156.89999086	0.00000000	47.85310000	11.83563000
157.09999085	0.00000000	47.47785000	11.84178000
157.29999084	0.00000000	47.43479000	12.21087000
157.49999083	0.00000000	47.43479000	12.16166000
157.69999081	0.00000000	47.47785000	11.46653000
157.89999080	0.00000000	47.85310000	11.09129000
158.09999079	0.00000000	48.59744000	11.04823000
158.29999078	0.00000000	48.97269000	11.04823000
158.49999077	0.00000000	49.01575000	11.04823000
158.69999075	0.00000000	49.01575000	11.04823000
158.89999074	0.00000000	49.01575000	11.04823000
159.09999073	0.00000000	49.01575000	11.04823000
159.29999072	0.00000000	49.01575000	11.04823000
159.49999071	0.00000000	49.01575000	11.09129000
159.69999070	0.00000000	49.01575000	11.46653000
159.89999068	0.00000000	48.97269000	12.21087000
160.09999067	0.00000000	48.59744000	12.58612000
160.29999066	0.00000000	47.85310000	12.58612000
160.49999065	0.00000000	47.47785000	12.21087000
160.69999064	0.00000000	47.43479000	11.46653000
160.89999062	0.00000000	47.43479000	11.09129000
161.09999061	0.00000000	47.47785000	11.04823000
161.29999060	0.00000000	47.85310000	11.04823000
161.49999059	0.00000000	48.59744000	11.04823000
161.69999058	0.00000000	48.97269000	11.04823000
161.89999056	0.00000000	49.01575000	11.04823000
162.09999055	0.00000000	49.01575000	11.04823000
162.29999054	0.00000000	49.01575000	11.04823000
162.49999053	0.00000000	49.01575000	11.04823000
162.69999052	0.00000000	49.01575000	11.09129000
162.89999051	0.00000000	49.01575000	11.46653000
163.09999049	0.00000000	48.97269000	12.16166000
163.29999048	0.00000000	48.59744000	12.16166000
163.49999047	0.00000000	47.85310000	11.46653000
163.69999046	0.00000000	47.47785000	11.09129000
163.89999045	0.00000000	47.43479000	11.04823000
164.09999043	0.00000000	47.43479000	11.04823000
164.29999042	0.00000000	47.47785000	11.04823000
164.49999041	0.00000000	47.85310000	11.04823000
164.69999040	0.00000000	48.59744000	11.04823000
164.89999039	0.00000000	48.97269000	11.04823000
165.09999037	0.00000000	49.01575000	11.04823000
165.29999036	0.00000000	49.01575000	11.04823000
165.49999035	0.00000000	49.01575000	11.09129000
165.69999034	0.00000000	49.01575000	11.42347000
165.89999033	0.00000000	49.01575000	11.79257000
166.09999032	0.00000000	48.97269000	11.42347000
166.29999030	0.00000000	48.59744000	11.09129000
166.49999029	0.00000000	47.85310000	11.04823000
166.69999028	0.00000000	47.52707000	11.04823000
166.89999027	0.00000000	47.81004000	11.04823000
167.09999026	0.00000000	48.17913000	11.04823000
167.29999024	0.00000000	47.81004000	11.00517000
167.49999023	0.00000000	47.52707000	10.62992000
167.69999022	0.00000000	47.85310000	9.93479300
167.89999021	0.00000000	48.59744000	9.93479300
168.09999020	0.00000000	48.97269000	10.62992000
168.29999018	0.00000000	49.01575000	11.00517000
168.49999017	0.00000000	49.01575000	11.00517000
168.69999016	0.00000000	49.01575000	10.67298000
168.89999015	0.00000000	48.97269000	10.31004000
169.09999014	0.00000000	48.59744000	10.67298000
169.29999013	0.00000000	47.90231000	11.00517000
169.49999011	0.00000000	47.85310000	11.04823000
169.69999010	0.00000000	48.17913000	11.04823000
169.89999009	0.00000000	47.81004000	11.04823000
170.09999008	0.00000000	47.47785000	11.04823000
170.29999007	0.00000000	47.47785000	11.04823000
170.49999005	0.00000000	47.85310000	11.04823000
170.69999004	0.00000000	48.59744000	11.04823000
170.89999003	0.00000000	48.97269000	11.04823000
171.09999002	0.00000000	49.01575000	11.04823000
171.29999001	0.00000000	49.01575000	11.04823000
171.49998999	0.00000000	49.01575000	11.04823000
171.69998998	0.00000000	49.01575000	11.04823000
171.89998997	0.00000000	49.01575000	11.04823000
172.09998996	0.00000000	49.01575000	11.04823000
172.29998995	0.00000000	48.97269000	11.04823000
172.49998994	0.00000000	48.64050000	11.04823000
172.69998992	0.00000000	48.22834000	11.04823000
172.89998991	0.00000000	48.22219000	11.00517000
173.09998990	0.00000000	47.85310000	10.72219000
173.29998989	0.00000000	47.90231000	10.68528000
173.49998988	0.00000000	48.59744000	11.46038000
173.69998986	0.00000000	48.97269000	11.75566000
173.89998985	0.00000000	49.01575000	11.83563000
174.09998984	0.00000000	49.01575000	11.42347000
174.29998983	0.00000000	49.01575000	11.09129000
174.49998982	0.00000000	49.01575000	11.04823000
174.69998980	0.00000000	49.01575000	11.04823000
174.89998979	0.00000000	48.97269000	11.04823000
175.09998978	0.00000000	48.59744000	11.04823000
175.29998977	0.00000000	47.85310000	11.04823000
175.49998976	0.00000000	47.52707000	11.04823000
175.69998975	0.00000000	47.81004000	11.04823000
175.89998973	0.00000000	48.17913000	11.04823000
176.09998972	0.00000000	47.85310000	11.04823000
176.29998971	0.00000000	47.85310000	11.04823000
176.49998970	0.00000000	48.17913000	11.04823000
176.69998969	0.00000000	47.81004000	11.00517000
176.89998967	0.00000000	47.47785000	10.67298000
177.09998966	0.00000000	47.43479000	10.31004000
177.29998965	0.00000000	47.43479000	10.62992000
177.49998964	0.00000000	47.43479000	10.58686000
177.69998963	0.00000000	47.43479000	9.93479300
177.89998961	0.00000000	47.43479000	9.93479300
178.09998960	0.00000000	47.43479000	10.62992000
178.29998959	0.00000000	47.43479000	11.00517000
178.49998958	0.00000000	47.43479000	11.04823000
178.69998957	0.00000000	47.43479000	11.04823000
178.89998956	0.00000000	47.43479000	11.04823000
179.09998954	0.00000000	47.43479000	11.04823000
179.29998953	0.00000000	47.47785000	11.04823000
179.49998952	0.00000000	47.81004000	11.04823000
179.69998951	0.00000000	48.22219000	11.04823000
179.89998950	0.00000000	48.22834000	11.04823000
180.09998948	0.00000000	48.59744000	11.00517000
180.29998947	0.00000000	48.54823000	10.62992000
180.49998946	0.00000000	47.85310000	9.89173200
180.69998945	0.00000000	47.47785000	9.51648500
180.89998944	0.00000000	47.43479000	9.51648500
181.09998942	0.00000000	47.43479000	9.89173200
181.29998941	0.00000000	47.43479000	10.62992000
181.49998940	0.00000000	47.43479000	11.00517000
181.69998939	0.00000000	47.47785000	11.04823000
181.89998938	0.00000000	47.85310000	11.04823000
182.09998937	0.00000000	48.59744000	11.04823000
182.29998935	0.00000000	48.97269000	11.04823000
182.49998934	0.00000000	49.01575000	11.04823000
182.69998933	0.00000000	48.97269000	11.04823000
182.89998932	0.00000000	48.64050000	11.04823000
183.09998931	0.00000000	48.27140000	11.04823000
183.29998929	0.00000000	48.59744000	11.04823000
183.49998928	0.00000000	48.54823000	11.04823000
183.69998927	0.00000000	47.85310000	11.00517000
183.89998926	0.00000000	47.47785000	10.67298000
184.09998925	0.00000000	47.43479000	10.31004000
184.29998923	0.00000000	47.43479000	10.72219000
184.49998922	0.00000000	47.43479000	11.42347000
184.69998921	0.00000000	47.43479000	12.21087000
184.89998920	0.00000000	47.47785000	12.58612000
185.09998919	0.00000000	47.81004000	12.58612000
185.29998918	0.00000000	48.22219000	12.21087000
185.49998916	0.00000000	48.18528000	11.46653000
185.69998915	0.00000000	48.26525000	11.09129000
185.89998914	0.00000000	48.22834000	11.00517000
186.09998913	0.00000000	48.64050000	10.62992000
186.29998912	0.00000000	48.97269000	9.89173200
186.49998910	0.00000000	49.01575000	9.51648500
186.69998909	0.00000000	48.97269000	9.51648500
186.89998908	0.00000000	48.59744000	9.89173200
187.09998907	0.00000000	47.85310000	10.62992000
187.29998906	0.00000000	47.47785000	11.04823000
187.49998904	0.00000000	47.43479000	11.42347000
187.69998903	0.00000000	47.43479000	11.83563000
187.89998902	0.00000000	47.43479000	11.79872000
188.09998901	0.00000000	47.47785000	11.83563000
188.29998900	0.00000000	47.81004000	11.42347000
188.49998899	0.00000000	48.22219000	11.09129000
188.69998897	0.00000000	48.22834000	11.04823000
188.89998896	0.00000000	48.64050000	11.00517000
189.09998895	0.00000000	48.92347000	10.62992000
189.29998894	0.00000000	48.59744000	9.93479300
189.49998893	0.00000000	47.90231000	9.89173200
189.69998891	0.00000000	47.90231000	10.21161000
189.89998890	0.00000000	48.54823000	9.89173200
190.09998889	0.00000000	48.54823000	9.93479300
190.29998888	0.00000000	47.85310000	10.62992000
190.49998887	0.00000000	47.47785000	11.00517000
190.69998885	0.00000000	47.43479000	11.00517000
190.89998884	0.00000000	47.43479000	10.67298000
191.09998883	0.00000000	47.43479000	10.35310000
191.29998882	0.00000000	47.43479000	11.04823000
191.49998881	0.00000000	47.47785000	11.74336000
191.69998880	0.00000000	47.81004000	11.42347000
191.89998878	0.00000000	48.17913000	11.09129000
192.09998877	0.00000000	47.85310000	11.04823000
192.29998876	0.00000000	47.85310000	11.04823000
192.49998875	0.00000000	48.22219000	11.04823000
192.69998874	0.00000000	48.14222000	11.00517000
192.89998872	0.00000000	47.84694000	10.67298000
193.09998871	0.00000000	47.06569000	10.31004000
193.29998870	0.00000000	47.10260000	10.67298000
193.49998869	0.00000000	47.39173000	11.00517000
193.69998868	0.00000000	47.43479000	11.04823000
193.89998866	0.00000000	47.43479000	11.04823000
194.09998865	0.00000000	47.43479000	11.04823000
194.29998864	0.00000000	47.43479000	11.04823000
194.49998863	0.00000000	47.47785000	11.04823000
194.69998862	0.00000000	47.85310000	11.04823000
194.89998861	0.00000000	48.59744000	11.04823000
195.09998859	0.00000000	48.97269000	11.04823000
195.29998858	0.00000000	48.97269000	11.04823000
195.49998857	0.00000000	48.59744000	11.04823000
195.69998856	0.00000000	47.85310000	11.04823000
195.89998855	0.00000000	47.47785000	11.04823000
196.09998853	0.00000000	47.43479000	11.04823000
