Time	Channel A	Channel B	Channel C
(us)	(V)	(mV)	(mV)

-4.49999956	0.00000000	75.85506000	22.10261000
-4.29999957	0.00000000	75.52288000	22.10261000
-4.09999958	0.00000000	75.15379000	22.10261000
-3.89999959	0.00000000	75.52288000	22.10261000
-3.69999960	0.00000000	75.85506000	22.10261000
-3.49999962	0.00000000	75.89813000	22.10261000
-3.29999963	0.00000000	75.89813000	22.10261000
-3.09999964	0.00000000	75.89813000	22.14567000
-2.89999965	0.00000000	75.89813000	22.47785000
-2.69999966	0.00000000	75.89813000	22.84695000
-2.49999968	0.00000000	75.89813000	22.47785000
-2.29999969	0.00000000	75.85506000	22.14567000
-2.09999970	0.00000000	75.52288000	22.10261000
-1.89999971	0.00000000	75.15379000	22.10261000
-1.69999972	0.00000000	75.52288000	22.10261000
-1.49999973	0.00000000	75.85506000	22.10261000
-1.29999975	0.00000000	75.89813000	22.10261000
-1.09999976	0.00000000	75.89813000	22.10261000
-0.89999977	0.00000000	75.89813000	22.10261000
-0.69999978	0.00000000	75.89813000	22.10261000
-0.49999979	0.00000000	75.89813000	22.10261000
-0.29999981	0.31803640	75.89813000	22.10261000
-0.09999982	0.63668800	75.89813000	22.10261000
0.10000017	0.95533960	75.85506000	22.10261000
0.30000016	0.95533960	75.47981000	22.10261000
0.50000015	0.95533960	74.78469000	22.10261000
0.70000013	0.31803640	74.78469000	22.10261000
0.90000012	-0.47736220	75.47981000	22.10261000
1.10000011	-1.43331700	75.85506000	22.10261000
1.30000010	-2.22994600	75.89813000	22.14567000
1.50000009	-2.70792300	75.89813000	22.52091000
1.70000008	-2.54859700	75.89813000	23.21604000
1.90000006	-1.43331700	75.89813000	23.21604000
2.10000005	0.31803640	75.89813000	22.52091000
2.30000004	2.38927200	75.89813000	22.14567000
2.50000003	4.30056600	75.85506000	22.10261000
2.70000002	5.25652100	75.47981000	22.05955000
2.90000000	4.93786900	74.73548000	21.72736000
3.09999999	3.18590100	74.36023000	21.36442000
3.29999998	0.15871060	74.31717000	21.72736000
3.49999997	-3.18590100	74.31717000	22.05955000
3.69999996	-6.21247500	74.36023000	22.10261000
3.89999994	-7.80511800	74.69241000	22.10261000
4.09999993	-7.64579200	75.10458000	22.14567000
4.29999992	-5.25652100	75.11072000	22.52091000
4.49999991	-1.43331700	75.52288000	23.26525000
4.69999990	3.02657500	75.80585000	23.59129000
4.89999989	6.84916400	75.47981000	23.26525000
5.09999987	9.07972400	74.73548000	22.47785000
5.29999986	9.23905000	74.36023000	21.77658000
5.49999985	6.84916400	74.31717000	21.32136000
5.69999984	2.70792300	74.36023000	21.35827000
5.89999983	-1.91129400	74.69241000	21.32136000
6.09999981	-6.21247500	75.06151000	21.68430000
6.29999980	-8.92039900	74.69241000	21.68430000
6.49999979	-9.23905000	74.40945000	21.40748000
6.69999978	-7.32714100	74.73548000	22.15182000
6.89999977	-3.82258900	75.43060000	23.17298000
7.09999975	0.47736220	75.43060000	23.21604000
7.29999974	4.61921700	74.78469000	22.47785000
7.49999973	7.16781500	74.73548000	21.77658000
7.69999972	7.64579200	75.06151000	21.36442000
7.89999971	6.37180100	74.69241000	21.72736000
8.09999970	3.82258900	74.36023000	22.05955000
8.29999968	0.47736220	74.31717000	22.05955000
8.49999967	-2.54859700	74.31717000	21.72736000
8.69999966	-4.61921700	74.36023000	21.36442000
8.89999965	-5.09719500	74.69241000	21.72736000
9.09999964	-4.45989200	75.10458000	22.05955000
9.29999962	-2.86724900	75.06767000	22.10261000
9.49999961	-0.79601380	75.10458000	22.10261000
9.69999960	0.95533960	74.69241000	22.10261000
9.89999959	2.07062000	74.36023000	22.10261000
10.09999958	2.54859700	74.31717000	22.10261000
10.29999956	2.22994600	74.36023000	22.10261000
10.49999955	1.59264300	74.73548000	22.10261000
10.69999954	0.63668800	75.43060000	22.10261000
10.89999953	-0.15871060	75.47981000	22.10261000
11.09999952	-0.63668800	75.15379000	22.10261000
11.29999951	-0.95533960	75.52288000	22.10261000
11.49999949	-0.95533960	75.80585000	22.10261000
11.69999948	-0.79601380	75.52288000	22.10261000
11.89999947	-0.47736220	75.15379000	22.10261000
12.09999946	-0.15871060	75.47981000	22.10261000
12.29999945	-0.15871060	75.43060000	22.10261000
12.49999943	0.00000000	74.73548000	22.05955000
12.69999942	0.00000000	74.36023000	21.72736000
12.89999941	0.00000000	74.31717000	21.36442000
13.09999940	0.00000000	74.36023000	21.72736000
13.29999939	0.00000000	74.73548000	22.05955000
13.49999937	0.00000000	75.43060000	22.10261000
13.69999936	0.00000000	75.43060000	22.10261000
13.89999935	0.00000000	74.73548000	22.10261000
14.09999934	0.00000000	74.36023000	22.10261000
14.29999933	-0.15871060	74.36023000	22.10261000
14.49999932	-0.15871060	74.69241000	22.10261000
14.69999930	-0.15871060	75.06151000	22.10261000
14.89999929	0.00000000	74.69241000	22.10261000
15.09999928	0.00000000	74.40945000	22.14567000
15.29999927	0.00000000	74.69241000	22.47785000
15.49999926	0.00000000	75.06151000	22.84695000
15.69999924	0.00000000	74.69241000	22.47785000
15.89999923	0.00000000	74.36023000	22.14567000
16.09999922	0.00000000	74.31717000	22.10261000
16.29999921	0.00000000	74.36023000	22.10261000
16.49999920	0.00000000	74.73548000	22.10261000
16.69999919	-0.15871060	75.47981000	22.10261000
16.89999917	0.00000000	75.85506000	22.10261000
17.09999916	0.00000000	75.89813000	22.10261000
17.29999915	0.00000000	75.94118000	22.10261000
17.49999914	0.00000000	76.27337000	22.10261000
17.69999913	0.00000000	76.64246000	22.10261000
17.89999911	0.00000000	76.23032000	22.10261000
18.09999910	0.00000000	75.47981000	22.10261000
18.29999909	0.00000000	74.27411000	22.10261000
18.49999908	0.00000000	72.73621000	22.10261000
18.69999907	0.00000000	71.19833000	22.10261000
18.89999905	0.00000000	70.08488000	22.10261000
19.09999904	0.00000000	70.08488000	22.10261000
19.29999903	0.00000000	71.29060000	22.10261000
19.49999902	0.00000000	73.62204000	22.10261000
19.69999901	0.00000000	77.14690000	22.10261000
19.89999900	0.00000000	80.97318000	22.10261000
20.09999898	0.00000000	84.45496000	22.10261000
20.29999897	0.00000000	86.31889000	22.10261000
20.49999896	0.00000000	85.90058000	22.10261000
20.69999895	0.00000000	82.73868000	22.10261000
20.89999894	0.00000000	76.92544000	22.10261000
21.09999892	0.00000000	69.57431000	22.10261000
21.29999891	0.00000000	62.21702000	22.10261000
21.49999890	0.00000000	56.49606000	22.10261000
21.69999889	0.00000000	54.26304000	22.10261000
21.89999888	0.00000000	57.00049000	22.05955000
22.09999886	0.00000000	64.40083000	21.68430000
22.29999885	0.00000000	75.28912000	20.98917000
22.49999884	0.00000000	87.99212000	20.94611000
22.69999883	0.00000000	99.15723000	21.30905000
22.89999882	0.00000000	105.67790000	21.32136000
23.09999881	0.00000000	105.95470000	21.77658000
23.29999879	0.00000000	98.51746000	22.47785000
23.49999878	0.00000000	84.22736000	23.26525000
23.69999877	0.00000000	66.49852000	23.64050000
23.89999876	0.00000000	49.47096000	23.68356000
24.09999875	0.00000000	37.13705000	23.64050000
24.29999873	0.00000000	32.20350000	23.26525000
24.49999872	0.00000000	36.94635000	22.43479000
24.69999871	0.00000000	51.23646000	21.26599000
24.89999870	0.00000000	71.70891000	19.36516000
25.09999869	0.00000000	93.76230000	17.83341000
25.29999867	0.00000000	112.65380000	17.03371000
25.49999866	0.00000000	123.77580000	16.67077000
25.69999865	0.00000000	123.72660000	17.54429000
25.89999864	0.00000000	112.14320000	19.82652000
26.09999863	0.00000000	91.67076000	23.35138000
26.29999862	0.00000000	66.95989000	27.17150000
26.49999860	0.00000000	43.79306000	30.69636000
26.69999859	0.00000000	27.55290000	32.92938000
26.89999858	0.00000000	21.78272000	33.29847000
27.09999857	0.00000000	27.97121000	30.88705000
27.29999856	0.00000000	44.95570000	25.86737000
27.49999854	0.00000000	68.45472000	18.85458000
27.69999853	0.00000000	92.83341000	11.18356000
27.89999852	0.00000000	112.56150000	4.68134800
28.09999851	0.00000000	123.77580000	1.61786400
28.29999850	0.00000000	123.77580000	2.81742100
28.49999848	0.00000000	112.65380000	8.30462600
28.69999847	0.00000000	93.76230000	17.96260000
28.89999846	0.00000000	71.75196000	29.53371000
29.09999845	0.00000000	51.61171000	40.40969000
29.29999844	0.00000000	37.64764000	48.82505000
29.49999843	0.00000000	32.16043000	52.16535000
29.69999841	0.00000000	35.97441000	48.31446000
29.89999840	0.00000000	47.51476000	38.27509000
30.09999839	0.00000000	63.75492000	24.33563000
30.29999838	0.00000000	81.20078000	8.87057000
30.49999837	0.00000000	96.27829000	-4.60752900
30.69999835	0.00000000	105.99780000	-13.10900000
30.89999834	0.00000000	108.37840000	-14.54847000
31.09999833	0.00000000	103.81400000	-7.95398600
31.29999832	0.00000000	93.76230000	5.93626900
31.49999831	0.00000000	80.59178000	23.64050000
31.69999829	0.00000000	67.05216000	41.06176000
31.89999828	0.00000000	55.79478000	54.63213000
32.09999827	0.00000000	49.18799000	61.92790000
32.29999826	0.00000000	47.98228000	61.12820000
32.49999825	0.00000000	52.25763000	51.84547000
32.69999824	0.00000000	61.10359000	36.41117000
32.89999822	0.00000000	72.26870000	17.87647000
33.09999821	0.00000000	82.73868000	0.50442900
33.29999820	0.00000000	90.50811000	-11.90330000
33.49999819	0.00000000	94.41436000	-17.33514000
33.69999818	0.00000000	93.62696000	-14.59769000
33.89999816	0.00000000	88.68725000	-4.18922200
34.09999815	0.00000000	80.92397000	11.60802000
34.29999814	0.00000000	72.44710000	28.98007000
34.49999813	0.00000000	64.72686000	44.08833000
34.69999812	0.00000000	60.11934000	54.12155000
34.89999810	0.00000000	59.65797000	56.85900000
35.09999809	0.00000000	62.72760000	51.88853000
35.29999808	0.00000000	68.50394000	41.06176000
35.49999807	0.00000000	75.38755000	26.37795000
35.69999806	0.00000000	81.20078000	10.99901000
35.89999805	0.00000000	84.69488000	-0.94119090
36.09999803	0.00000000	85.48228000	-6.79133800
36.29999802	0.00000000	83.15698000	-5.67790300
36.49999801	0.00000000	78.54945000	1.61786400
36.69999800	0.00000000	72.82233000	13.18282000
36.89999799	0.00000000	67.84571000	26.24262000
37.09999797	0.00000000	65.47121000	37.34621000
37.29999796	0.00000000	65.42200000	43.15945000
37.49999795	0.00000000	67.42741000	42.50738000
37.69999794	0.00000000	71.61663000	36.74335000
37.89999793	0.00000000	76.59325000	27.49138000
38.09999791	0.00000000	80.50565000	16.80610000
38.29999790	0.00000000	83.24926000	8.39074700
38.49999789	0.00000000	84.31963000	4.85974400
38.69999788	0.00000000	82.78174000	6.39763700
38.89999787	0.00000000	78.96776000	12.57382000
39.09999786	0.00000000	74.36023000	22.10261000
39.29999784	0.00000000	70.08488000	31.63140000
39.49999783	0.00000000	66.95989000	37.77067000
39.69999782	0.00000000	65.37893000	38.92716000
39.89999781	0.00000000	65.37893000	34.69488000
40.09999780	0.00000000	66.95989000	26.28568000
40.29999778	0.00000000	70.08488000	16.33858000
40.49999777	0.00000000	74.31717000	7.88631800
40.69999776	0.00000000	78.54945000	3.27878900
40.89999775	0.00000000	81.66830000	3.65403500
41.09999774	0.00000000	83.24926000	9.04281500
41.29999772	0.00000000	83.24926000	17.87647000
41.49999771	0.00000000	81.71136000	27.86663000
41.69999770	0.00000000	79.01697000	36.31890000
41.89999769	0.00000000	75.85506000	40.92643000
42.09999768	0.00000000	72.36097000	40.55118000
42.29999767	0.00000000	68.92224000	35.20546000
42.49999765	0.00000000	66.95989000	26.79626000
42.69999764	0.00000000	66.54158000	17.91953000
42.89999763	0.00000000	67.29208000	10.58071000
43.09999762	0.00000000	69.24213000	6.30536400
43.29999761	0.00000000	71.53051000	5.93626900
43.49999759	0.00000000	73.89886000	9.33193800
43.69999758	0.00000000	75.80585000	15.45891000
43.89999757	0.00000000	77.01156000	22.01033000
44.09999756	0.00000000	77.43602000	27.82357000
44.29999755	0.00000000	77.47908000	31.67446000
44.49999753	0.00000000	77.47908000	32.46801000
44.69999752	0.00000000	77.47908000	30.64714000
44.89999751	0.00000000	77.43602000	27.17150000
45.09999750	0.00000000	77.06077000	23.30832000
45.29999749	0.00000000	76.27337000	19.45743000
45.49999748	0.00000000	75.43060000	16.75689000
45.69999746	0.00000000	73.76353000	15.92027000
45.89999745	0.00000000	70.73695000	16.25246000
46.09999744	0.00000000	67.29208000	17.45817000
46.29999743	0.00000000	64.96062000	19.40822000
46.49999742	0.00000000	63.84104000	22.10261000
46.69999740	0.00000000	64.68381000	24.75394000
46.89999739	0.00000000	68.21481000	26.28568000
47.09999738	0.00000000	73.62204000	26.37795000
47.29999737	0.00000000	80.17347000	25.59055000
47.49999736	0.00000000	85.94365000	24.42790000
47.69999734	0.00000000	89.43774000	22.43479000
47.89999733	0.00000000	90.13287000	20.15256000
48.09999732	0.00000000	86.97095000	17.83341000
48.29999731	0.00000000	80.04429000	16.33858000
48.49999730	0.00000000	71.19833000	16.29552000
48.69999729	0.00000000	62.72760000	17.45817000
48.89999727	0.00000000	56.91437000	19.40822000
49.09999726	0.00000000	54.95816000	22.15182000
49.29999725	0.00000000	56.95743000	25.21530000
49.49999724	0.00000000	63.19512000	27.86663000
49.69999723	0.00000000	72.77928000	29.02928000
49.89999721	0.00000000	82.73868000	28.24188000
50.09999720	0.00000000	90.13287000	25.91043000
50.29999719	0.00000000	93.62696000	22.05955000
50.49999718	0.00000000	92.83341000	17.87647000
50.69999717	0.00000000	87.38926000	14.76378000
50.89999715	0.00000000	78.59251000	13.18282000
51.09999714	0.00000000	68.96530000	13.22589000
51.29999713	0.00000000	61.23892000	15.18209000
51.49999712	0.00000000	57.00049000	19.03912000
51.69999711	0.00000000	57.37573000	23.64050000
51.89999710	0.00000000	62.35236000	27.86663000
52.09999708	0.00000000	69.99261000	30.56102000
52.29999707	0.00000000	78.08808000	30.93627000
52.49999706	0.00000000	84.27657000	29.02928000
52.69999705	0.00000000	87.38926000	25.22145000
52.89999704	0.00000000	86.97095000	20.98917000
53.09999702	0.00000000	82.78174000	17.50123000
53.29999701	0.00000000	76.27337000	15.13902000
53.49999700	0.00000000	69.70964000	14.38853000
53.69999699	0.00000000	64.35777000	15.13902000
53.89999698	0.00000000	62.07553000	17.45817000
54.09999696	0.00000000	63.89025000	20.47859000
54.29999695	0.00000000	68.07948000	23.22219000
54.49999694	0.00000000	73.15452000	25.12918000
54.69999693	0.00000000	78.54945000	25.91043000
54.89999692	0.00000000	82.69561000	25.12918000
55.09999691	0.00000000	83.90133000	23.26525000
55.29999689	0.00000000	81.99433000	20.98917000
55.49999688	0.00000000	78.17421000	19.50049000
55.69999687	0.00000000	73.15452000	19.45743000
55.89999686	0.00000000	68.59006000	20.61393000
56.09999685	0.00000000	65.84645000	22.52091000
56.29999683	0.00000000	65.47121000	24.75394000
56.49999682	0.00000000	67.38435000	25.86737000
56.69999681	0.00000000	71.19833000	25.12918000
56.89999680	0.00000000	75.38755000	23.17298000
57.09999679	0.00000000	78.50639000	20.06029000
57.29999677	0.00000000	80.08734000	16.29552000
57.49999676	0.00000000	80.08734000	13.64419000
57.69999675	0.00000000	78.54945000	13.27510000
57.89999674	0.00000000	75.85506000	15.22515000
58.09999673	0.00000000	72.82849000	19.45743000
58.29999672	0.00000000	70.50320000	24.84621000
58.49999670	0.00000000	69.70964000	29.82283000
58.69999669	0.00000000	70.04182000	33.29847000
58.89999668	0.00000000	71.19833000	34.00591000
59.09999667	0.00000000	72.73621000	31.71752000
59.29999666	0.00000000	74.31717000	26.66092000
59.49999664	0.00000000	75.80585000	20.10950000
59.69999663	0.00000000	76.59325000	13.18282000
59.89999662	0.00000000	76.18109000	7.88631800
60.09999661	0.00000000	75.10458000	6.35457700
60.29999660	0.00000000	73.57283000	8.99975300
60.49999658	0.00000000	72.82849000	14.76378000
60.69999657	0.00000000	72.73621000	22.10261000
60.89999656	0.00000000	72.77928000	29.44759000
61.09999655	0.00000000	73.20374000	35.20546000
61.29999654	0.00000000	74.36023000	37.89985000
61.49999653	0.00000000	75.85506000	36.69414000
61.69999651	0.00000000	76.96850000	31.67446000
61.89999650	0.00000000	76.96850000	23.64050000
62.09999649	0.00000000	75.80585000	15.18209000
62.29999648	0.00000000	73.89886000	8.58144600
62.49999647	0.00000000	71.57356000	4.73056000
62.69999645	0.00000000	69.70964000	4.77362200
62.89999644	0.00000000	68.92224000	8.95669300
63.09999643	0.00000000	69.66658000	15.87721000
63.29999642	0.00000000	71.19833000	23.63435000
63.49999641	0.00000000	73.15452000	30.97933000
63.69999639	0.00000000	75.47981000	36.31890000
63.89999638	0.00000000	77.38681000	37.85679000
64.09999637	0.00000000	78.54945000	35.25467000
64.29999636	0.00000000	78.54945000	29.90895000
64.49999635	0.00000000	77.38681000	23.68356000
64.69999634	0.00000000	75.43060000	17.45817000
64.89999632	0.00000000	72.73621000	12.06939000
65.09999631	0.00000000	70.12794000	8.99975300
65.29999630	0.00000000	68.92224000	8.90747900
65.49999629	0.00000000	69.29134000	11.22662000
65.69999628	0.00000000	70.41092000	15.08981000
65.89999626	0.00000000	72.36097000	20.10950000
66.09999625	0.00000000	74.27411000	24.75394000
66.29999624	0.00000000	75.85506000	28.28494000
66.49999623	0.00000000	76.92544000	30.64714000
66.69999622	0.00000000	76.55019000	31.39763000
66.89999620	0.00000000	74.69241000	30.64714000
67.09999619	0.00000000	72.82849000	28.32800000
67.29999618	0.00000000	71.62278000	25.26452000
67.49999617	0.00000000	71.24754000	22.10261000
67.69999616	0.00000000	71.62278000	18.94685000
67.89999615	0.00000000	72.82849000	15.83415000
68.09999613	0.00000000	74.73548000	13.18282000
68.29999612	0.00000000	77.01156000	12.02018000
68.49999611	0.00000000	78.50639000	12.72146000
68.69999610	0.00000000	78.46333000	14.29626000
68.89999609	0.00000000	76.55019000	16.71383000
69.09999607	0.00000000	73.11147000	20.61393000
69.29999606	0.00000000	69.61736000	25.22145000
69.49999605	0.00000000	66.54158000	29.44759000
69.69999604	0.00000000	64.68381000	32.18504000
69.89999603	0.00000000	65.47121000	32.93553000
70.09999601	0.00000000	68.50394000	31.76673000
70.29999600	0.00000000	72.77928000	28.24188000
70.49999599	0.00000000	77.43602000	23.26525000
70.69999598	0.00000000	81.66830000	17.83341000
70.89999597	0.00000000	84.31963000	13.22589000
71.09999596	0.00000000	84.31963000	10.53765000
71.29999594	0.00000000	81.62524000	10.48843000
71.49999593	0.00000000	77.01156000	12.80758000
71.69999592	0.00000000	71.57356000	16.62155000
71.89999591	0.00000000	66.54158000	21.30905000
72.09999590	0.00000000	62.68454000	25.50443000
72.29999588	0.00000000	61.14665000	28.61097000
72.49999587	0.00000000	62.30930000	29.35531000
72.69999586	0.00000000	65.80339000	27.90969000
72.89999585	0.00000000	71.19833000	25.26452000
73.09999584	0.00000000	76.96850000	22.57013000
73.29999582	0.00000000	81.62524000	20.57087000
73.49999581	0.00000000	84.31963000	18.98991000
73.69999580	0.00000000	84.31963000	17.91953000
73.89999579	0.00000000	81.66830000	18.29478000
74.09999578	0.00000000	77.47908000	20.10950000
74.29999577	0.00000000	73.20374000	21.59203000
74.49999575	0.00000000	69.66043000	22.01033000
74.69999574	0.00000000	66.91682000	21.64124000
74.89999573	0.00000000	65.42815000	20.47859000
75.09999572	0.00000000	65.80339000	18.98991000
75.29999571	0.00000000	68.12868000	17.87647000
75.49999569	0.00000000	71.53051000	17.87647000
75.69999568	0.00000000	74.96924000	19.03912000
75.89999567	0.00000000	76.92544000	21.03838000
76.09999566	0.00000000	77.43602000	24.10187000
76.29999565	0.00000000	77.43602000	27.54060000
76.49999563	0.00000000	77.01156000	29.77362000
76.69999562	0.00000000	75.89813000	30.18578000
76.89999561	0.00000000	74.73548000	28.19882000
77.09999560	0.00000000	73.94193000	24.37869000
77.29999559	0.00000000	73.20374000	19.36516000
77.49999558	0.00000000	73.20374000	14.76378000
77.69999556	0.00000000	73.84965000	11.65108000
77.89999555	0.00000000	73.80659000	10.48843000
78.09999554	0.00000000	72.73621000	11.69414000
78.29999553	0.00000000	71.57356000	15.18209000
78.49999552	0.00000000	70.82307000	20.57087000
78.69999550	0.00000000	70.41092000	26.32874000
78.89999549	0.00000000	70.82307000	30.97933000
79.09999548	0.00000000	71.62278000	33.71678000
79.29999547	0.00000000	73.20374000	34.04897000
79.49999546	0.00000000	75.47981000	31.76673000
79.69999544	0.00000000	77.38681000	27.12229000
79.89999543	0.00000000	78.54945000	21.72736000
80.09999542	0.00000000	78.54945000	16.29552000
80.29999541	0.00000000	77.38681000	12.06939000
80.49999540	0.00000000	75.43060000	10.11319000
80.69999539	0.00000000	72.73621000	10.44537000
80.89999537	0.00000000	70.08488000	12.76452000
81.09999536	0.00000000	68.50394000	16.25246000
81.29999535	0.00000000	68.08563000	20.52780000
81.49999534	0.00000000	68.50394000	24.75394000
81.69999533	0.00000000	70.08488000	27.90969000
81.89999531	0.00000000	72.73621000	29.86589000
82.09999530	0.00000000	75.43060000	30.64714000
82.29999529	0.00000000	77.34374000	29.82283000
82.49999528	0.00000000	78.13115000	27.54060000
82.69999527	0.00000000	77.38681000	24.05881000
82.89999525	0.00000000	75.89813000	20.57087000
83.09999524	0.00000000	74.31717000	17.41511000
83.29999523	0.00000000	72.73621000	14.67150000
83.49999522	0.00000000	71.24754000	12.76452000
83.69999521	0.00000000	70.46014000	11.97711000
83.89999520	0.00000000	70.82307000	12.80758000
84.09999518	0.00000000	71.53051000	15.13902000
84.29999517	0.00000000	72.31791000	19.03912000
84.49999516	0.00000000	72.69316000	23.64050000
84.69999515	0.00000000	72.73621000	27.90969000
84.89999514	0.00000000	72.73621000	30.97933000
85.09999512	0.00000000	72.77928000	32.13582000
85.29999511	0.00000000	73.15452000	30.97933000
85.49999510	0.00000000	73.89886000	27.86663000
85.69999509	0.00000000	74.31717000	23.21604000
85.89999508	0.00000000	74.73548000	17.83341000
86.09999506	0.00000000	75.43060000	13.22589000
86.29999505	0.00000000	75.38755000	10.48843000
86.49999504	0.00000000	74.27411000	10.11319000
86.69999503	0.00000000	72.73621000	12.06939000
86.89999502	0.00000000	71.19833000	16.29552000
87.09999501	0.00000000	70.04182000	21.68430000
87.29999499	0.00000000	69.61736000	26.70398000
87.49999498	0.00000000	69.66658000	30.56102000
87.69999497	0.00000000	70.46014000	32.09276000
87.89999496	0.00000000	72.36097000	30.93627000
88.09999495	0.00000000	74.27411000	27.49138000
88.29999493	0.00000000	75.85506000	22.47785000
88.49999492	0.00000000	77.01156000	17.50123000
88.69999491	0.00000000	77.34374000	13.60113000
88.89999490	0.00000000	76.59325000	11.69414000
89.09999489	0.00000000	74.69241000	12.06939000
89.29999487	0.00000000	72.77928000	14.80684000
89.49999486	0.00000000	71.19833000	19.41437000
89.69999485	0.00000000	70.04182000	24.75394000
89.89999484	0.00000000	69.66658000	28.93701000
90.09999483	0.00000000	70.04182000	30.56102000
90.29999482	0.00000000	71.19833000	29.77362000
90.49999480	0.00000000	72.69316000	27.07308000
90.69999479	0.00000000	73.89886000	22.43479000
90.89999478	0.00000000	74.69241000	17.54429000
91.09999477	0.00000000	75.43060000	14.01944000
91.29999476	0.00000000	75.43060000	12.85064000
91.49999474	0.00000000	74.69241000	13.60113000
91.69999473	0.00000000	73.94193000	16.33858000
91.89999472	0.00000000	73.15452000	20.57087000
92.09999471	0.00000000	72.77928000	25.12918000
92.29999470	0.00000000	72.73621000	28.61097000
92.49999468	0.00000000	72.73621000	29.73056000
92.69999467	0.00000000	72.73621000	28.61097000
92.89999466	0.00000000	72.69316000	25.12918000
93.09999465	0.00000000	72.31791000	20.57087000
93.29999464	0.00000000	71.53051000	16.29552000
93.49999463	0.00000000	70.82307000	13.26895000
93.69999461	0.00000000	70.41092000	12.48770000
93.89999460	0.00000000	70.87228000	14.43159000
94.09999459	0.00000000	71.99188000	18.20251000
94.29999458	0.00000000	73.94193000	22.79773000
94.49999457	0.00000000	75.85506000	26.28568000
94.69999455	0.00000000	77.43602000	28.24188000
94.89999454	0.00000000	78.54945000	28.56176000
95.09999453	0.00000000	78.50639000	26.28568000
95.29999452	0.00000000	76.96850000	22.47785000
95.49999451	0.00000000	74.22490000	18.61466000
95.69999449	0.00000000	70.82307000	15.18209000
95.89999448	0.00000000	67.71038000	13.65034000
96.09999447	0.00000000	66.16634000	14.38853000
96.29999446	0.00000000	65.75418000	16.67077000
96.49999445	0.00000000	66.95989000	20.15256000
96.69999444	0.00000000	69.66043000	23.54823000
96.89999442	0.00000000	73.15452000	25.91043000
97.09999441	0.00000000	77.01156000	26.70398000
97.29999440	0.00000000	80.08734000	26.32874000
97.49999439	0.00000000	81.62524000	24.75394000
97.69999438	0.00000000	81.24999000	22.10261000
97.89999436	0.00000000	78.96776000	19.36516000
98.09999435	0.00000000	75.85506000	17.17520000
98.29999434	0.00000000	72.31791000	16.35089000
98.49999433	0.00000000	68.45472000	17.87033000
98.69999432	0.00000000	65.42815000	19.64813000
98.89999430	0.00000000	64.21629000	21.26599000
99.09999429	0.00000000	64.96062000	22.01033000
99.29999428	0.00000000	66.91682000	22.10261000
99.49999427	0.00000000	70.03568000	22.10261000
99.69999426	0.00000000	73.89886000	22.10261000
99.89999425	0.00000000	77.34374000	22.10261000
100.09999423	0.00000000	79.71210000	22.10261000
100.29999422	0.00000000	80.46259000	22.14567000
100.49999421	0.00000000	79.71210000	22.52091000
100.69999420	0.00000000	77.38681000	23.21604000
100.89999419	0.00000000	74.31717000	23.17298000
101.09999417	0.00000000	71.19833000	22.05955000
101.29999416	0.00000000	68.45472000	20.52780000
101.49999415	0.00000000	66.54158000	18.98991000
101.69999414	0.00000000	65.75418000	17.83341000
101.89999413	0.00000000	66.54158000	17.40895000
102.09999411	0.00000000	68.41166000	17.45817000
102.29999410	0.00000000	70.82307000	18.29478000
102.49999409	0.00000000	73.48671000	20.61393000
102.69999408	0.00000000	76.17495000	23.59129000
102.89999407	0.00000000	77.34374000	25.91043000
103.09999406	0.00000000	77.43602000	26.70398000
103.29999404	0.00000000	77.01156000	26.37795000
103.49999403	0.00000000	75.85506000	25.17224000
103.69999402	0.00000000	74.27411000	23.22219000
103.89999401	0.00000000	72.31791000	20.52780000
104.09999400	0.00000000	70.04182000	17.83341000
104.29999398	0.00000000	68.54699000	15.92027000
104.49999397	0.00000000	68.50394000	15.18209000
104.69999396	0.00000000	69.61736000	16.33858000
104.89999395	0.00000000	71.15526000	18.98991000
105.09999394	0.00000000	72.69316000	22.05955000
105.29999392	0.00000000	73.89886000	24.75394000
105.49999391	0.00000000	74.64935000	26.28568000
105.69999390	0.00000000	75.06151000	26.32874000
105.89999389	0.00000000	74.64935000	25.21530000
106.09999388	0.00000000	73.89886000	23.64050000
106.29999387	0.00000000	72.73621000	21.64124000
106.49999385	0.00000000	71.62278000	19.03297000
106.69999384	0.00000000	71.19833000	17.18135000
106.89999383	0.00000000	71.19833000	17.50123000
107.09999382	0.00000000	71.57356000	18.94685000
107.29999381	0.00000000	72.36097000	20.52780000
107.49999379	0.00000000	73.11147000	22.05955000
107.69999378	0.00000000	73.89886000	23.21604000
107.89999377	0.00000000	74.22490000	23.59129000
108.09999376	0.00000000	73.84965000	23.21604000
108.29999375	0.00000000	72.73621000	22.05955000
108.49999374	0.00000000	71.57356000	20.52780000
108.69999372	0.00000000	70.78001000	18.98991000
108.89999371	0.00000000	70.04182000	17.87647000
109.09999370	0.00000000	70.04182000	17.87647000
109.29999369	0.00000000	70.78001000	18.98991000
109.49999368	0.00000000	71.57356000	20.52780000
109.69999366	0.00000000	72.77928000	22.10261000
109.89999365	0.00000000	74.27411000	23.64050000
110.09999364	0.00000000	75.38755000	24.79700000
110.29999363	0.00000000	75.38755000	25.12918000
110.49999362	0.00000000	74.31717000	24.37869000
110.69999360	0.00000000	73.15452000	22.47785000
110.89999359	0.00000000	72.31791000	20.57087000
111.09999358	0.00000000	71.15526000	18.98991000
111.29999357	0.00000000	70.08488000	17.87647000
111.49999356	0.00000000	70.04182000	17.83341000
111.69999355	0.00000000	70.78001000	18.57160000
111.89999353	0.00000000	71.53051000	19.36516000
112.09999352	0.00000000	72.36097000	20.52780000
112.29999351	0.00000000	73.11147000	21.68430000
112.49999350	0.00000000	73.84965000	22.47785000
112.69999349	0.00000000	73.84965000	23.21604000
112.89999347	0.00000000	73.15452000	23.21604000
113.09999346	0.00000000	72.73621000	22.52091000
113.29999345	0.00000000	72.31791000	22.14567000
113.49999344	0.00000000	71.57356000	22.05955000
113.69999343	0.00000000	71.19833000	21.68430000
113.89999341	0.00000000	71.19833000	20.94611000
114.09999340	0.00000000	71.53051000	20.52780000
114.29999339	0.00000000	71.94266000	20.15256000
114.49999338	0.00000000	71.94881000	19.78346000
114.69999337	0.00000000	72.36097000	20.15256000
114.89999336	0.00000000	72.69316000	20.48474000
115.09999334	0.00000000	72.73621000	20.52780000
115.29999333	0.00000000	72.73621000	20.52780000
115.49999332	0.00000000	72.73621000	20.52780000
115.69999331	0.00000000	72.73621000	20.52780000
115.89999330	0.00000000	72.69316000	20.57087000
116.09999328	0.00000000	72.31791000	20.94611000
116.29999327	0.00000000	71.62278000	21.68430000
116.49999326	0.00000000	71.57356000	22.05955000
116.69999325	0.00000000	71.89960000	22.10261000
116.89999324	0.00000000	71.57356000	22.10261000
117.09999322	0.00000000	71.62278000	22.05955000
117.29999321	0.00000000	72.31791000	21.64124000
117.49999320	0.00000000	72.73621000	20.52780000
117.69999319	0.00000000	73.15452000	19.41437000
117.89999318	0.00000000	73.89886000	18.98991000
118.09999317	0.00000000	74.27411000	18.94685000
118.29999315	0.00000000	74.27411000	18.94685000
118.49999314	0.00000000	73.84965000	18.98991000
118.69999313	0.00000000	72.69316000	19.41437000
118.89999312	0.00000000	71.19833000	20.52780000
119.09999311	0.00000000	70.04182000	21.68430000
119.29999309	0.00000000	69.61736000	22.43479000
119.49999308	0.00000000	69.61736000	22.84695000
119.69999307	0.00000000	70.04182000	22.47785000
119.89999306	0.00000000	71.19833000	22.14567000
120.09999305	0.00000000	72.69316000	22.10261000
120.29999303	0.00000000	73.89886000	22.05955000
120.49999302	0.00000000	74.69241000	21.68430000
120.69999301	0.00000000	75.43060000	20.90305000
120.89999300	0.00000000	75.43060000	20.15256000
121.09999299	0.00000000	74.69241000	19.41437000
121.29999298	0.00000000	73.89886000	19.41437000
121.49999296	0.00000000	72.69316000	20.10950000
121.69999295	0.00000000	71.19833000	20.48474000
121.89999294	0.00000000	70.04182000	20.57087000
122.09999293	0.00000000	69.61736000	20.94611000
122.29999292	0.00000000	69.61736000	21.68430000
122.49999290	0.00000000	69.99261000	22.05955000
122.69999289	0.00000000	70.78001000	22.14567000
122.89999288	0.00000000	71.57356000	22.47785000
123.09999287	0.00000000	72.73621000	22.84695000
123.29999286	0.00000000	73.84965000	22.47785000
123.49999284	0.00000000	74.27411000	22.10261000
123.69999283	0.00000000	74.31717000	21.68430000
123.89999282	0.00000000	74.27411000	20.94611000
124.09999281	0.00000000	73.89886000	20.52780000
124.29999280	0.00000000	73.11147000	20.15256000
124.49999279	0.00000000	72.36097000	19.78346000
124.69999277	0.00000000	71.53051000	20.15256000
124.89999276	0.00000000	70.78001000	20.48474000
125.09999275	0.00000000	70.04182000	20.57087000
125.29999274	0.00000000	70.04182000	20.94611000
125.49999273	0.00000000	70.73695000	21.68430000
125.69999271	0.00000000	71.15526000	22.05955000
125.89999270	0.00000000	71.57356000	22.10261000
126.09999269	0.00000000	72.36097000	22.10261000
126.29999268	0.00000000	73.11147000	22.05955000
126.49999267	0.00000000	73.89886000	21.68430000
126.69999265	0.00000000	74.27411000	20.94611000
126.89999264	0.00000000	74.27411000	20.57087000
127.09999263	0.00000000	73.84965000	20.48474000
127.29999262	0.00000000	72.73621000	20.15256000
127.49999261	0.00000000	71.57356000	19.78346000
127.69999260	0.00000000	70.78001000	20.15256000
127.89999258	0.00000000	69.99261000	20.48474000
128.09999257	0.00000000	69.61736000	20.52780000
128.29999256	0.00000000	69.66658000	20.48474000
128.49999255	0.00000000	70.41092000	20.15256000
128.69999254	0.00000000	71.89960000	19.83268000
128.89999252	0.00000000	72.69316000	20.57087000
129.09999251	0.00000000	73.15452000	21.59203000
129.29999250	0.00000000	73.84965000	21.64124000
129.49999249	0.00000000	73.84965000	20.90305000
129.69999248	0.00000000	73.11147000	20.19562000
129.89999246	0.00000000	72.31791000	19.78346000
130.09999245	0.00000000	71.15526000	20.15256000
130.29999244	0.00000000	70.04182000	20.48474000
130.49999243	0.00000000	69.66658000	20.57087000
130.69999242	0.00000000	69.99261000	20.94611000
130.89999241	0.00000000	70.78001000	21.68430000
131.09999239	0.00000000	71.53051000	22.05955000
131.29999238	0.00000000	72.36097000	22.05955000
131.49999237	0.00000000	73.06840000	21.68430000
131.69999236	0.00000000	73.48056000	20.94611000
131.89999235	0.00000000	73.11147000	20.52780000
132.09999233	0.00000000	72.73621000	20.10950000
132.29999232	0.00000000	72.31791000	19.36516000
132.49999231	0.00000000	71.57356000	19.03912000
132.69999230	0.00000000	71.19833000	19.36516000
132.89999229	0.00000000	71.15526000	20.15256000
133.09999227	0.00000000	71.19833000	20.90305000
133.29999226	0.00000000	71.57356000	21.72736000
133.49999225	0.00000000	72.31791000	22.43479000
133.69999224	0.00000000	72.64394000	22.84695000
133.89999223	0.00000000	72.36097000	22.47785000
134.09999222	0.00000000	71.99188000	22.10261000
134.29999220	0.00000000	72.36097000	21.68430000
134.49999219	0.00000000	72.69316000	20.90305000
134.69999218	0.00000000	72.69316000	20.15256000
134.89999217	0.00000000	72.36097000	19.36516000
135.09999216	0.00000000	71.99188000	18.98991000
135.29999214	0.00000000	72.36097000	18.98991000
135.49999213	0.00000000	72.69316000	19.36516000
135.69999212	0.00000000	72.73621000	20.15256000
135.89999211	0.00000000	72.69316000	20.90305000
136.09999210	0.00000000	72.31791000	21.68430000
136.29999208	0.00000000	71.57356000	22.05955000
136.49999207	0.00000000	71.19833000	22.10261000
136.69999206	0.00000000	71.15526000	22.10261000
136.89999205	0.00000000	71.15526000	22.10261000
137.09999204	0.00000000	71.19833000	22.05955000
137.29999203	0.00000000	71.57356000	21.68430000
137.49999201	0.00000000	72.36097000	20.90305000
137.69999200	0.00000000	73.06840000	20.15256000
137.89999199	0.00000000	73.48056000	19.36516000
138.09999198	0.00000000	73.11147000	18.98991000
138.29999197	0.00000000	72.77928000	18.94685000
138.49999195	0.00000000	72.69316000	18.98991000
138.69999194	0.00000000	72.31791000	19.41437000
138.89999193	0.00000000	71.57356000	20.52780000
139.09999192	0.00000000	71.19833000	21.64124000
139.29999191	0.00000000	71.15526000	22.05955000
139.49999189	0.00000000	71.15526000	22.10261000
139.69999188	0.00000000	71.19833000	22.10261000
139.89999187	0.00000000	71.57356000	22.10261000
140.09999186	0.00000000	72.31791000	22.05955000
140.29999185	0.00000000	72.69316000	21.68430000
140.49999184	0.00000000	72.73621000	20.90305000
140.69999182	0.00000000	72.73621000	20.15256000
140.89999181	0.00000000	72.69316000	19.36516000
141.09999180	0.00000000	72.31791000	18.98991000
141.29999179	0.00000000	71.57356000	18.98991000
141.49999178	0.00000000	71.19833000	19.36516000
141.69999176	0.00000000	71.15526000	20.15256000
141.89999175	0.00000000	71.15526000	20.90305000
142.09999174	0.00000000	71.15526000	21.68430000
142.29999173	0.00000000	71.19833000	22.05955000
142.49999172	0.00000000	71.57356000	22.10261000
142.69999170	0.00000000	72.31791000	22.05955000
142.89999169	0.00000000	72.64394000	21.64124000
143.09999168	0.00000000	72.31791000	20.52780000
143.29999167	0.00000000	71.57356000	19.41437000
143.49999166	0.00000000	71.19833000	18.94685000
143.69999165	0.00000000	71.15526000	18.52854000
143.89999163	0.00000000	71.19833000	17.87647000
144.09999162	0.00000000	71.53051000	18.25172000
144.29999161	0.00000000	71.94266000	19.69119000
144.49999160	0.00000000	71.94881000	20.48474000
144.69999159	0.00000000	72.36097000	20.94611000
144.89999157	0.00000000	72.69316000	21.68430000
145.09999156	0.00000000	72.69316000	22.01033000
145.29999155	0.00000000	72.31791000	21.68430000
145.49999154	0.00000000	71.57356000	20.94611000
145.69999153	0.00000000	71.19833000	20.57087000
145.89999151	0.00000000	71.15526000	20.48474000
146.09999150	0.00000000	71.15526000	20.10950000
146.29999149	0.00000000	71.15526000	19.41437000
146.49999148	0.00000000	71.19833000	19.41437000
146.69999147	0.00000000	71.57356000	20.10950000
146.89999146	0.00000000	72.31791000	20.48474000
147.09999144	0.00000000	72.69316000	20.52780000
147.29999143	0.00000000	72.73621000	20.57087000
147.49999142	0.00000000	72.73621000	20.94611000
147.69999141	0.00000000	72.69316000	21.68430000
147.89999140	0.00000000	72.31791000	22.05955000
148.09999138	0.00000000	71.57356000	22.10261000
148.29999137	0.00000000	71.19833000	22.10261000
148.49999136	0.00000000	71.15526000	22.10261000
148.69999135	0.00000000	71.15526000	22.05955000
148.89999134	0.00000000	71.15526000	21.68430000
149.09999132	0.00000000	71.15526000	20.90305000
149.29999131	0.00000000	71.19833000	20.19562000
149.49999130	0.00000000	71.57356000	19.78346000
149.69999129	0.00000000	72.31791000	20.15256000
149.89999128	0.00000000	72.69316000	20.48474000
150.09999127	0.00000000	72.73621000	20.52780000
150.29999125	0.00000000	72.73621000	20.52780000
150.49999124	0.00000000	72.69316000	20.57087000
150.69999123	0.00000000	72.31791000	20.94611000
150.89999122	0.00000000	71.57356000	21.64124000
151.09999121	0.00000000	71.19833000	21.64124000
151.29999119	0.00000000	71.15526000	20.94611000
151.49999118	0.00000000	71.15526000	20.57087000
151.69999117	0.00000000	71.15526000	20.52780000
151.89999116	0.00000000	71.15526000	20.52780000
152.09999115	0.00000000	71.15526000	20.48474000
152.29999113	0.00000000	71.19833000	20.15256000
152.49999112	0.00000000	71.57356000	19.78346000
152.69999111	0.00000000	72.31791000	20.15256000
152.89999110	0.00000000	72.69316000	20.48474000
153.09999109	0.00000000	72.69316000	20.52780000
153.29999108	0.00000000	72.31791000	20.52780000
153.49999106	0.00000000	71.57356000	20.52780000
153.69999105	0.00000000	71.19833000	20.52780000
153.89999104	0.00000000	71.15526000	20.52780000
154.09999103	0.00000000	71.11221000	20.52780000
154.29999102	0.00000000	70.78001000	20.52780000
154.49999100	0.00000000	70.36786000	20.52780000
154.69999099	0.00000000	70.40477000	20.52780000
154.89999098	0.00000000	70.36786000	20.52780000
155.09999097	0.00000000	70.78001000	20.52780000
155.29999096	0.00000000	71.15526000	20.52780000
155.49999094	0.00000000	71.57356000	20.52780000
155.69999093	0.00000000	72.31791000	20.52780000
155.89999092	0.00000000	72.64394000	20.52780000
156.09999091	0.00000000	72.31791000	20.52780000
156.29999090	0.00000000	71.57356000	20.52780000
156.49999089	0.00000000	71.19833000	20.52780000
156.69999087	0.00000000	71.15526000	20.57087000
156.89999086	0.00000000	71.15526000	20.90305000
157.09999085	0.00000000	71.15526000	21.30905000
157.29999084	0.00000000	71.15526000	21.32136000
157.49999083	0.00000000	71.15526000	21.72736000
157.69999081	0.00000000	71.15526000	22.01033000
157.89999080	0.00000000	71.15526000	21.68430000
158.09999079	0.00000000	71.15526000	20.90305000
158.29999078	0.00000000	71.19833000	20.19562000
158.49999077	0.00000000	71.53051000	19.69734000
158.69999075	0.00000000	71.94266000	19.35900000
158.89999074	0.00000000	71.90575000	18.62697000
159.09999073	0.00000000	71.94266000	19.03912000
159.29999072	0.00000000	71.53051000	20.10950000
159.49999071	0.00000000	71.19833000	20.85384000
159.69999070	0.00000000	71.15526000	21.30905000
159.89999068	0.00000000	71.15526000	21.32136000
160.09999067	0.00000000	71.15526000	21.72736000
160.29999066	0.00000000	71.15526000	22.01033000
160.49999065	0.00000000	71.15526000	21.68430000
160.69999064	0.00000000	71.15526000	20.94611000
160.89999062	0.00000000	71.15526000	20.57087000
161.09999061	0.00000000	71.15526000	20.48474000
161.29999060	0.00000000	71.15526000	20.15256000
161.49999059	0.00000000	71.15526000	19.78346000
161.69999058	0.00000000	71.15526000	20.15256000
161.89999056	0.00000000	71.19833000	20.48474000
162.09999055	0.00000000	71.53051000	20.52780000
162.29999054	0.00000000	71.89960000	20.52780000
162.49999053	0.00000000	71.53051000	20.57087000
162.69999052	0.00000000	71.19833000	20.90305000
162.89999051	0.00000000	71.15526000	21.26599000
163.09999049	0.00000000	71.11221000	20.90305000
163.29999048	0.00000000	70.78001000	20.57087000
163.49999047	0.00000000	70.36786000	20.52780000
163.69999046	0.00000000	70.36171000	20.52780000
163.89999045	0.00000000	69.99261000	20.52780000
164.09999043	0.00000000	70.04182000	20.48474000
164.29999042	0.00000000	70.73695000	20.10950000
164.49999041	0.00000000	71.11221000	19.41437000
164.69999040	0.00000000	71.15526000	19.41437000
164.89999039	0.00000000	71.15526000	20.06029000
165.09999037	0.00000000	71.19833000	20.10950000
165.29999036	0.00000000	71.53051000	19.78346000
165.49999035	0.00000000	71.89960000	20.15256000
165.69999034	0.00000000	71.53051000	20.48474000
165.89999033	0.00000000	71.19833000	20.52780000
166.09999032	0.00000000	71.15526000	20.52780000
166.29999030	0.00000000	71.15526000	20.52780000
166.49999029	0.00000000	71.11221000	20.52780000
166.69999028	0.00000000	70.73695000	20.52780000
166.89999027	0.00000000	70.04182000	20.52780000
167.09999026	0.00000000	70.04182000	20.52780000
167.29999024	0.00000000	70.73695000	20.52780000
167.49999023	0.00000000	71.11221000	20.52780000
167.69999022	0.00000000	71.15526000	20.52780000
167.89999021	0.00000000	71.15526000	20.52780000
168.09999020	0.00000000	71.15526000	20.52780000
168.29999018	0.00000000	71.15526000	20.52780000
168.49999017	0.00000000	71.15526000	20.52780000
168.69999016	0.00000000	71.15526000	20.52780000
168.89999015	0.00000000	71.15526000	20.52780000
169.09999014	0.00000000	71.15526000	20.52780000
169.29999013	0.00000000	71.15526000	20.52780000
169.49999011	0.00000000	71.15526000	20.52780000
169.69999010	0.00000000	71.11221000	20.52780000
169.89999009	0.00000000	70.78001000	20.52780000
170.09999008	0.00000000	70.41092000	20.52780000
170.29999007	0.00000000	70.78001000	20.52780000
170.49999005	0.00000000	71.11221000	20.52780000
170.69999004	0.00000000	71.15526000	20.52780000
170.89999003	0.00000000	71.15526000	20.52780000
171.09999002	0.00000000	71.15526000	20.52780000
171.29999001	0.00000000	71.15526000	20.52780000
171.49998999	0.00000000	71.15526000	20.52780000
171.69998998	0.00000000	71.15526000	20.52780000
171.89998997	0.00000000	71.15526000	20.52780000
172.09998996	0.00000000	71.15526000	20.52780000
172.29998995	0.00000000	71.15526000	20.52780000
172.49998994	0.00000000	71.15526000	20.52780000
172.69998992	0.00000000	71.15526000	20.52780000
172.89998991	0.00000000	71.15526000	20.52780000
173.09998990	0.00000000	71.15526000	20.52780000
173.29998989	0.00000000	71.15526000	20.52780000
173.49998988	0.00000000	71.15526000	20.52780000
173.69998986	0.00000000	71.15526000	20.48474000
173.89998985	0.00000000	71.15526000	20.15256000
174.09998984	0.00000000	71.15526000	19.78346000
174.29998983	0.00000000	71.15526000	20.15256000
174.49998982	0.00000000	71.15526000	20.48474000
174.69998980	0.00000000	71.15526000	20.52780000
174.89998979	0.00000000	71.15526000	20.48474000
175.09998978	0.00000000	71.15526000	20.15256000
175.29998977	0.00000000	71.11221000	19.78346000
175.49998976	0.00000000	70.78001000	20.15256000
175.69998975	0.00000000	70.41092000	20.48474000
175.89998973	0.00000000	70.78001000	20.52780000
176.09998972	0.00000000	71.11221000	20.52780000
176.29998971	0.00000000	71.15526000	20.52780000
176.49998970	0.00000000	71.15526000	20.52780000
176.69998969	0.00000000	71.15526000	20.52780000
176.89998967	0.00000000	71.15526000	20.52780000
177.09998966	0.00000000	71.15526000	20.52780000
177.29998965	0.00000000	71.15526000	20.52780000
177.49998964	0.00000000	71.15526000	20.52780000
177.69998963	0.00000000	71.15526000	20.52780000
177.89998961	0.00000000	71.15526000	20.48474000
178.09998960	0.00000000	71.15526000	20.15256000
178.29998959	0.00000000	71.15526000	19.78346000
178.49998958	0.00000000	71.11221000	20.15256000
178.69998957	0.00000000	70.78001000	20.48474000
178.89998956	0.00000000	70.41092000	20.52780000
179.09998954	0.00000000	70.78001000	20.52780000
179.29998953	0.00000000	71.11221000	20.52780000
179.49998952	0.00000000	71.15526000	20.52780000
179.69998951	0.00000000	71.15526000	20.52780000
179.89998950	0.00000000	71.15526000	20.52780000
180.09998948	0.00000000	71.15526000	20.52780000
180.29998947	0.00000000	71.15526000	20.52780000
180.49998946	0.00000000	71.15526000	20.52780000
180.69998945	0.00000000	71.15526000	20.52780000
180.89998944	0.00000000	71.15526000	20.52780000
181.09998942	0.00000000	71.15526000	20.52780000
181.29998941	0.00000000	71.15526000	20.52780000
181.49998940	0.00000000	71.15526000	20.52780000
181.69998939	0.00000000	71.15526000	20.52780000
181.89998938	0.00000000	71.15526000	20.52780000
182.09998937	0.00000000	71.15526000	20.52780000
182.29998935	0.00000000	71.15526000	20.52780000
182.49998934	0.00000000	71.15526000	20.52780000
182.69998933	0.00000000	71.15526000	20.52780000
182.89998932	0.00000000	71.15526000	20.52780000
183.09998931	0.00000000	71.15526000	20.52780000
183.29998929	0.00000000	71.15526000	20.52780000
183.49998928	0.00000000	71.15526000	20.48474000
183.69998927	0.00000000	71.15526000	20.15256000
183.89998926	0.00000000	71.15526000	19.78346000
184.09998925	0.00000000	71.15526000	20.15256000
184.29998923	0.00000000	71.15526000	20.48474000
184.49998922	0.00000000	71.15526000	20.52780000
184.69998921	0.00000000	71.15526000	20.52780000
184.89998920	0.00000000	71.15526000	20.52780000
185.09998919	0.00000000	71.15526000	20.52780000
185.29998918	0.00000000	71.15526000	20.52780000
185.49998916	0.00000000	71.15526000	20.52780000
185.69998915	0.00000000	71.15526000	20.48474000
185.89998914	0.00000000	71.15526000	20.10950000
186.09998913	0.00000000	71.15526000	19.36516000
186.29998912	0.00000000	71.15526000	18.98991000
186.49998910	0.00000000	71.15526000	18.94685000
186.69998909	0.00000000	71.15526000	18.98991000
186.89998908	0.00000000	71.11221000	19.36516000
187.09998907	0.00000000	70.73695000	20.10950000
187.29998906	0.00000000	69.99261000	20.52780000
187.49998904	0.00000000	69.61736000	20.90305000
187.69998903	0.00000000	69.61736000	21.26599000
187.89998902	0.00000000	69.99261000	20.94611000
188.09998901	0.00000000	70.73695000	20.94611000
188.29998900	0.00000000	71.11221000	21.26599000
188.49998899	0.00000000	71.15526000	20.85384000
188.69998897	0.00000000	71.15526000	20.19562000
188.89998896	0.00000000	71.15526000	19.74040000
189.09998895	0.00000000	71.15526000	19.73425000
189.29998894	0.00000000	71.11221000	19.36516000
189.49998893	0.00000000	70.78001000	19.41437000
189.69998891	0.00000000	70.36786000	20.06029000
189.89998890	0.00000000	70.36171000	20.06029000
190.09998889	0.00000000	69.94955000	19.41437000
190.29998888	0.00000000	69.61736000	19.41437000
190.49998887	0.00000000	69.57431000	20.10950000
190.69998885	0.00000000	69.57431000	20.48474000
190.89998884	0.00000000	69.61736000	20.52780000
191.09998883	0.00000000	69.99261000	20.52780000
191.29998882	0.00000000	70.73695000	20.48474000
191.49998881	0.00000000	71.11221000	20.15256000
191.69998880	0.00000000	71.15526000	19.78346000
191.89998878	0.00000000	71.15526000	20.15256000
192.09998877	0.00000000	71.15526000	20.48474000
192.29998876	0.00000000	71.15526000	20.48474000
192.49998875	0.00000000	71.15526000	20.10950000
192.69998874	0.00000000	71.11221000	19.36516000
192.89998872	0.00000000	70.73695000	19.03912000
193.09998871	0.00000000	69.99261000	19.36516000
193.29998870	0.00000000	69.61736000	20.10950000
193.49998869	0.00000000	69.57431000	20.48474000
193.69998868	0.00000000	69.61736000	20.52780000
193.89998866	0.00000000	69.99261000	20.52780000
194.09998865	0.00000000	70.73695000	20.52780000
194.29998864	0.00000000	71.11221000	20.52780000
194.49998863	0.00000000	71.15526000	20.52780000
194.69998862	0.00000000	71.15526000	20.52780000
194.89998861	0.00000000	71.15526000	20.52780000
195.09998859	0.00000000	71.15526000	20.52780000
195.29998858	0.00000000	71.15526000	20.52780000
195.49998857	0.00000000	71.11221000	20.52780000
195.69998856	0.00000000	70.73695000	20.52780000
195.89998855	0.00000000	69.99261000	20.52780000
196.09998853	0.00000000	69.61736000	20.52780000
