Time	Channel A	Channel B	Channel C
(us)	(V)	(mV)	(mV)

-4.49999956	0.00000000	9.11048200	9.47342500
-4.29999957	0.00000000	9.39345400	9.47342500
-4.09999958	0.00000000	9.11048200	9.47342500
-3.89999959	0.00000000	8.74138700	9.47342500
-3.69999960	0.00000000	9.11048200	9.47342500
-3.49999962	0.00000000	9.44266700	9.47342500
-3.29999963	0.00000000	9.48572700	9.47342500
-3.09999964	0.00000000	9.44266700	9.47342500
-2.89999965	0.00000000	9.11048200	9.47342500
-2.69999966	0.00000000	8.74138700	9.47342500
-2.49999968	0.00000000	9.06742000	9.47342500
-2.29999969	0.00000000	9.06742000	9.47342500
-2.09999970	0.00000000	8.69832600	9.47342500
-1.89999971	0.00000000	8.73523500	9.47342500
-1.69999972	0.00000000	8.69832600	9.47342500
-1.49999973	0.00000000	9.11048200	9.47342500
-1.29999975	0.00000000	9.44266700	9.47342500
-1.09999976	0.00000000	9.48572700	9.47342500
-0.89999977	0.00000000	9.48572700	9.47342500
-0.69999978	0.00000000	9.48572700	9.47342500
-0.49999979	0.00000000	9.48572700	9.47342500
-0.29999981	0.15871060	9.48572700	9.47342500
-0.09999982	0.63668800	9.48572700	9.47342500
0.10000017	0.95533960	9.44266700	9.47342500
0.30000016	0.95533960	9.11048200	9.47342500
0.50000015	0.95533960	8.74138700	9.43036400
0.70000013	0.47736220	9.11048200	9.09817800
0.90000012	-0.15871060	9.44266700	8.72908400
1.10000011	-1.27399100	9.48572700	9.09817800
1.30000010	-2.07062000	9.44266700	9.43036400
1.50000009	-2.70792300	9.11048200	9.47342500
1.70000008	-2.54859700	8.74138700	9.47342500
1.90000006	-1.75196900	9.11048200	9.47342500
2.10000005	0.00000000	9.39345400	9.47342500
2.30000004	2.07062000	9.11048200	9.47342500
2.50000003	3.98191400	8.69832600	9.43036400
2.70000002	5.25652100	8.69217500	9.09817800
2.90000000	5.25652100	8.28001900	8.68602300
3.09999999	3.66326300	7.94783400	8.67987200
3.29999998	0.79601380	7.94783400	8.26771600
3.49999997	-2.54859700	8.32308000	7.98474400
3.69999996	-5.73449800	9.06742000	8.31077700
3.89999994	-7.64579200	9.44266700	9.05511800
4.09999993	-7.80511800	9.48572700	9.43036400
4.29999992	-5.89382400	9.48572700	9.47342500
4.49999991	-2.22994600	9.48572700	9.47342500
4.69999990	2.22994600	9.44266700	9.47342500
4.89999989	6.21247500	9.11048200	9.47342500
5.09999987	8.92039900	8.74138700	9.43036400
5.29999986	9.39837600	9.11048200	9.05511800
5.49999985	7.48646600	9.44266700	8.31077700
5.69999984	3.66326300	9.44266700	7.93553100
5.89999983	-0.95533960	9.11048200	7.93553100
6.09999981	-5.41584600	8.74138700	8.31077700
6.29999980	-8.60174700	9.11048200	9.05511800
6.49999979	-9.39837600	9.44266700	9.43036400
6.69999978	-7.96444400	9.48572700	9.47342500
6.89999977	-4.61921700	9.48572700	9.47342500
7.09999975	-0.31803640	9.48572700	9.47342500
7.29999974	3.82258900	9.48572700	9.47342500
7.49999973	6.69045300	9.44266700	9.47342500
7.69999972	7.80511800	9.11048200	9.43036400
7.89999971	6.84916400	8.74138700	9.09817800
8.09999970	4.45989200	9.11048200	8.68602300
8.29999968	1.11466500	9.44266700	8.72293300
8.49999967	-2.07062000	9.48572700	8.68602300
8.69999966	-4.30056600	9.48572700	9.09817800
8.89999965	-5.09719500	9.48572700	9.43036400
9.09999964	-4.77854300	9.48572700	9.47342500
9.29999962	-3.18590100	9.48572700	9.47342500
9.49999961	-1.27399100	9.48572700	9.47342500
9.69999960	0.63668800	9.44266700	9.47342500
9.89999959	1.91129400	9.11048200	9.47342500
10.09999958	2.54859700	8.69832600	9.43036400
10.29999956	2.38927200	8.73523500	9.09817800
10.49999955	1.75196900	8.65526600	8.68602300
10.69999954	0.79601380	8.77829600	8.72293300
10.89999953	0.00000000	9.07357200	8.68602300
11.09999952	-0.63668800	9.85482200	9.09817800
11.29999951	-0.95533960	9.76870100	9.43036400
11.49999949	-0.95533960	9.15354300	9.47342500
11.69999948	-0.79601380	8.74138700	9.47342500
11.89999947	-0.47736220	9.11048200	9.47342500
12.09999946	-0.15871060	9.44266700	9.47342500
12.29999945	-0.15871060	9.48572700	9.43036400
12.49999943	-0.15871060	9.48572700	9.09817800
12.69999942	0.00000000	9.48572700	8.72908400
12.89999941	0.00000000	9.44266700	9.09817800
13.09999940	0.00000000	9.11048200	9.43036400
13.29999939	0.15871060	8.74138700	9.47342500
13.49999937	0.00000000	9.11048200	9.47342500
13.69999936	0.00000000	9.44266700	9.47342500
13.89999935	0.00000000	9.48572700	9.47342500
14.09999934	0.00000000	9.48572700	9.47342500
14.29999933	-0.15871060	9.48572700	9.47342500
14.49999932	-0.15871060	9.48572700	9.47342500
14.69999930	0.00000000	9.48572700	9.47342500
14.89999929	0.00000000	9.44266700	9.47342500
15.09999928	0.00000000	9.11048200	9.47342500
15.29999927	0.00000000	8.74138700	9.47342500
15.49999926	0.00000000	9.06742000	9.47342500
15.69999924	0.00000000	9.06742000	9.47342500
15.89999923	0.00000000	8.69832600	9.47342500
16.09999922	0.00000000	8.73523500	9.47342500
16.29999921	0.00000000	8.65526600	9.47342500
16.49999920	0.00000000	8.73523500	9.47342500
16.69999919	-0.15871060	8.69832600	9.47342500
16.89999917	0.00000000	9.15354300	9.47342500
17.09999916	0.00000000	9.86097400	9.47342500
17.29999915	0.00000000	10.64838000	9.47342500
17.49999914	0.00000000	11.02362000	9.47342500
17.69999913	0.00000000	11.02362000	9.47342500
17.89999911	0.00000000	10.59916000	9.47342500
18.09999910	0.00000000	9.48572700	9.47342500
18.29999909	0.00000000	8.28001900	9.47342500
18.49999908	0.00000000	7.11122000	9.47342500
18.69999907	0.00000000	5.53641700	9.47342500
18.89999905	0.00000000	4.45989200	9.47342500
19.09999904	0.00000000	4.04773600	9.47342500
19.29999903	0.00000000	4.92125900	9.47342500
19.49999902	0.00000000	7.20964500	9.47342500
19.69999901	0.00000000	10.73450000	9.47342500
19.89999900	0.00000000	14.56078000	9.47342500
20.09999898	0.00000000	18.04257000	9.47342500
20.29999897	0.00000000	19.95571000	9.47342500
20.49999896	0.00000000	19.90650000	9.47342500
20.69999895	0.00000000	17.53199000	9.47342500
20.89999894	0.00000000	12.42003000	9.43036400
21.09999892	0.00000000	5.43799200	9.09817800
21.29999891	0.00000000	-2.60826800	8.72908400
21.49999890	0.00000000	-9.07357200	9.09817800
21.69999889	0.00000000	-11.40502000	9.43036400
21.89999888	0.00000000	-9.44881800	9.47342500
22.09999886	0.00000000	-3.12500000	9.47342500
22.29999885	0.00000000	7.34498000	9.43036400
22.49999884	0.00000000	20.04183000	9.05511800
22.69999883	0.00000000	31.62524000	8.35998900
22.89999882	0.00000000	39.30856000	8.35998900
23.09999881	0.00000000	41.12328000	9.05511800
23.29999879	0.00000000	35.21776000	9.47342500
23.49999878	0.00000000	22.09646000	9.89173200
23.69999877	0.00000000	4.69980300	10.62992000
23.89999876	0.00000000	-13.02903000	11.00517000
24.09999875	0.00000000	-26.89468000	11.00517000
24.29999873	0.00000000	-33.04010000	10.62992000
24.49999872	0.00000000	-29.92126000	9.84867000
24.69999871	0.00000000	-17.82726000	9.05511800
24.89999870	0.00000000	1.53174200	7.84940900
25.09999869	0.00000000	24.28026000	6.31151500
25.29999867	0.00000000	44.66043000	4.82283400
25.49999866	0.00000000	57.40649000	4.08464600
25.69999865	0.00000000	59.31963000	4.87204700
25.89999864	0.00000000	50.01230000	6.77903500
26.09999863	0.00000000	31.02854000	9.55954600
26.29999862	0.00000000	6.36687900	13.04749000
26.49999860	0.00000000	-17.91339000	16.90453000
26.69999859	0.00000000	-35.69143000	19.88189000
26.89999858	0.00000000	-43.13484000	20.62008000
27.09999857	0.00000000	-39.22859000	18.30093000
27.29999856	0.00000000	-24.88927000	13.61343000
27.49999854	0.00000000	-2.51599400	7.01279500
27.69999853	0.00000000	22.13952000	-0.69512790
27.89999852	0.00000000	43.03642000	-7.20349400
28.09999851	0.00000000	55.82554000	-11.05438000
28.29999850	0.00000000	57.78174000	-10.96826000
28.49999848	0.00000000	48.98499000	-6.27460600
28.69999847	0.00000000	32.00049000	2.63902500
28.89999846	0.00000000	11.10974000	14.21014000
29.09999845	0.00000000	-9.40575800	25.77510000
29.29999844	0.00000000	-25.26452000	34.65182000
29.49999843	0.00000000	-32.99704000	38.84104000
29.69999841	0.00000000	-31.17618000	36.79257000
29.89999840	0.00000000	-20.79847000	27.92200000
30.09999839	0.00000000	-5.35187000	14.03174000
30.29999838	0.00000000	12.09400000	-1.43946800
30.49999837	0.00000000	27.95891000	-15.74803000
30.69999835	0.00000000	38.84719000	-25.69513000
30.89999834	0.00000000	43.12869000	-28.38951000
31.09999833	0.00000000	40.09596000	-22.95768000
31.29999832	0.00000000	30.84399000	-10.59301000
31.49999831	0.00000000	18.08563000	6.40378900
31.69999829	0.00000000	4.13385800	24.20029000
31.89999828	0.00000000	-7.82480200	39.25935000
32.09999827	0.00000000	-15.26206000	48.49901000
32.29999826	0.00000000	-17.21826000	49.24335000
32.49999825	0.00000000	-13.77338000	41.52928000
32.69999824	0.00000000	-5.67790300	26.85162000
32.89999822	0.00000000	4.74286400	8.35998900
33.09999821	0.00000000	15.21284000	-9.43651600
33.29999820	0.00000000	23.72047000	-23.00074000
33.49999819	0.00000000	28.37721000	-29.97047000
33.69999818	0.00000000	28.42027000	-28.80782000
33.89999816	0.00000000	24.18799000	-19.93110000
34.09999815	0.00000000	16.87992000	-5.25344500
34.29999814	0.00000000	8.41535400	12.12475000
34.49999813	0.00000000	1.02116100	28.34030000
34.69999812	0.00000000	-4.01082700	39.95448000
34.89999810	0.00000000	-5.91166300	44.59892000
35.09999809	0.00000000	-3.58636800	41.52928000
35.29999808	0.00000000	2.09153500	31.49606000
35.49999807	0.00000000	9.01820900	16.90453000
35.69999806	0.00000000	15.16363000	1.43946800
35.89999805	0.00000000	19.06988000	-11.30044000
36.09999803	0.00000000	19.86343000	-19.00221000
36.29999802	0.00000000	17.95029000	-19.42667000
36.49999801	0.00000000	13.71801000	-12.96752000
36.69999800	0.00000000	8.37229300	-2.18380900
36.89999799	0.00000000	3.71555100	10.54380000
37.09999797	0.00000000	0.64591530	22.06570000
37.29999796	0.00000000	-0.14148620	29.36146000
37.49999795	0.00000000	1.80856300	30.56717000
37.69999794	0.00000000	5.57947800	25.63976000
37.89999793	0.00000000	10.27313000	16.81225000
38.09999791	0.00000000	14.46850000	6.44685000
38.29999790	0.00000000	17.57505000	-2.74975400
38.49999789	0.00000000	18.32554000	-7.72022600
38.69999788	0.00000000	16.83686000	-7.34498000
38.89999787	0.00000000	13.76107000	-1.58710600
39.09999786	0.00000000	9.86097400	7.89247000
39.29999784	0.00000000	5.99163300	17.46432000
39.49999783	0.00000000	2.46678100	24.02190000
39.69999782	0.00000000	0.22760820	26.34104000
39.89999781	0.00000000	-0.23375980	23.55438000
40.09999780	0.00000000	1.34104300	15.93258000
40.29999778	0.00000000	4.04773600	5.62253900
40.49999777	0.00000000	7.94783400	-3.58021600
40.69999776	0.00000000	12.13706000	-9.38730200
40.89999775	0.00000000	15.29897000	-10.50074000
41.09999774	0.00000000	17.25517000	-6.23154500
41.29999772	0.00000000	17.99951000	2.55290300
41.49999771	0.00000000	16.83686000	13.28125000
41.69999770	0.00000000	14.18553000	22.48400000
41.89999769	0.00000000	11.06668000	27.92200000
42.09999768	0.00000000	7.90477300	28.34030000
42.29999767	0.00000000	4.83513700	24.10802000
42.49999765	0.00000000	2.50984200	16.43701000
42.69999764	0.00000000	1.75935000	7.19734200
42.89999763	0.00000000	2.46678100	-0.84276570
43.09999762	0.00000000	4.41067900	-5.89936000
43.29999761	0.00000000	6.69906400	-6.69291300
43.49999759	0.00000000	9.06742000	-3.72170300
43.69999758	0.00000000	10.97441000	1.66707700
43.89999757	0.00000000	12.18012000	7.84940900
44.09999756	0.00000000	12.60458000	13.65650000
44.29999755	0.00000000	12.64764000	17.88263000
44.49999753	0.00000000	12.64764000	19.46358000
44.69999752	0.00000000	12.64764000	18.35015000
44.89999751	0.00000000	12.64764000	15.27436000
45.09999750	0.00000000	12.60458000	11.04823000
45.29999749	0.00000000	12.18012000	6.82209600
45.49999748	0.00000000	10.97441000	3.70939900
45.69999746	0.00000000	9.01820900	2.17150600
45.89999745	0.00000000	6.28075700	2.50369100
46.09999744	0.00000000	3.16190900	4.40452700
46.29999743	0.00000000	0.13533460	6.68676100
46.49999742	0.00000000	-1.72244100	9.05511800
46.69999740	0.00000000	-0.93503930	11.00517000
46.89999739	0.00000000	2.17765700	12.58612000
47.09999738	0.00000000	7.25270600	13.69956000
47.29999737	0.00000000	13.81028000	13.65650000
47.49999736	0.00000000	19.95571000	12.16781000
47.69999734	0.00000000	24.18799000	9.89173200
47.89999733	0.00000000	25.30143000	7.93553100
48.09999732	0.00000000	22.60704000	6.31151500
48.29999731	0.00000000	16.79380000	4.82283400
48.49999730	0.00000000	9.01820900	4.08464600
48.69999729	0.00000000	0.51058070	4.87204700
48.89999727	0.00000000	-6.74827700	6.77903500
49.09999726	0.00000000	-10.56225000	9.51648500
49.29999725	0.00000000	-9.40575800	12.58612000
49.49999724	0.00000000	-3.63558100	15.23130000
49.69999723	0.00000000	5.25344500	16.39395000
49.89999721	0.00000000	15.29897000	15.64960000
50.09999720	0.00000000	24.09572000	13.69956000
50.29999719	0.00000000	29.11540000	10.53765000
50.49999718	0.00000000	28.74631000	6.35457700
50.69999717	0.00000000	23.76353000	2.54675200
50.89999715	0.00000000	15.29897000	0.59670270
51.09999714	0.00000000	5.67175200	0.59670270
51.29999713	0.00000000	-2.42987200	2.50369100
51.49999712	0.00000000	-7.44955700	6.02854300
51.69999711	0.00000000	-7.82480200	10.26698000
51.89999710	0.00000000	-3.63558100	14.85605000
52.09999708	0.00000000	3.62942900	17.92569000
52.29999707	0.00000000	11.71875000	18.71924000
52.49999706	0.00000000	18.28248000	17.55659000
52.69999705	0.00000000	22.18258000	14.11786000
52.89999704	0.00000000	22.51476000	9.89173200
53.09999702	0.00000000	19.11294000	6.02854300
53.29999701	0.00000000	12.97982000	2.92199800
53.49999700	0.00000000	6.45915300	1.80241100
53.69999699	0.00000000	1.02116100	2.50369100
53.89999698	0.00000000	-2.00541300	4.82283400
54.09999696	0.00000000	-1.63016700	7.84940900
54.29999695	0.00000000	2.17765700	10.58686000
54.49999694	0.00000000	7.90477300	12.49385000
54.69999693	0.00000000	13.67495000	13.28125000
54.89999692	0.00000000	17.90723000	12.49385000
55.09999691	0.00000000	19.44513000	10.67298000
55.29999689	0.00000000	17.95029000	8.72908400
55.49999688	0.00000000	14.13632000	7.60949800
55.69999687	0.00000000	9.52879000	7.19734200
55.89999686	0.00000000	5.25344500	8.02780400
56.09999685	0.00000000	2.17765700	9.84867000
56.29999683	0.00000000	1.02116100	11.74951000
56.49999682	0.00000000	2.17765700	12.49385000
56.69999681	0.00000000	5.21038300	12.11860000
56.89999680	0.00000000	9.11048200	10.53765000
57.09999679	0.00000000	12.93061000	7.84940900
57.29999677	0.00000000	15.99409000	4.77977300
57.49999676	0.00000000	16.74459000	2.12844500
57.69999675	0.00000000	15.29897000	1.01501000
57.89999674	0.00000000	12.60458000	2.22071800
58.09999673	0.00000000	9.52879000	5.66560000
58.29999672	0.00000000	6.83439900	10.67298000
58.49999670	0.00000000	5.29650500	15.69882000
58.69999669	0.00000000	5.21038300	19.92495000
58.89999668	0.00000000	5.99163300	22.10876000
59.09999667	0.00000000	7.16043300	20.57702000
59.29999666	0.00000000	9.11048200	15.60654000
59.49999664	0.00000000	10.97441000	9.05511800
59.69999663	0.00000000	12.13706000	2.08538400
59.89999662	0.00000000	12.13706000	-3.62942900
60.09999661	0.00000000	11.02362000	-6.32381900
60.29999660	0.00000000	9.52879000	-5.11195900
60.49999658	0.00000000	8.37229300	-0.14148620
60.69999657	0.00000000	7.94783400	7.56643700
60.89999656	0.00000000	7.94783400	15.60654000
61.09999655	0.00000000	8.37229300	22.20103000
61.29999654	0.00000000	9.52879000	25.63976000
61.49999653	0.00000000	11.02362000	25.22145000
61.69999651	0.00000000	12.18012000	20.57702000
61.89999650	0.00000000	12.51230000	12.58612000
62.09999649	0.00000000	11.76181000	4.08464600
62.29999648	0.00000000	9.86097400	-2.88508800
62.49999647	0.00000000	7.94783400	-7.48031400
62.69999645	0.00000000	6.36687900	-7.85556000
62.89999644	0.00000000	5.25344500	-4.09694900
63.09999643	0.00000000	5.25344500	2.12844500
63.29999642	0.00000000	6.41609200	9.84867000
63.49999641	0.00000000	8.37229300	17.50738000
63.69999639	0.00000000	11.02362000	22.57628000
63.89999638	0.00000000	13.29970000	24.53248000
64.09999637	0.00000000	14.13632000	23.36368000
64.29999636	0.00000000	14.13632000	18.76845000
64.49999635	0.00000000	13.34276000	12.62918000
64.69999634	0.00000000	11.39887000	6.36072800
64.89999632	0.00000000	9.11048200	0.59670270
65.09999631	0.00000000	6.79133800	-3.21112200
65.29999630	0.00000000	5.25344500	-3.67249000
65.49999629	0.00000000	4.87819900	-1.44562000
65.69999628	0.00000000	5.67175200	2.08538400
65.89999626	0.00000000	7.94783400	6.72982200
66.09999625	0.00000000	10.55610000	11.74336000
66.29999624	0.00000000	12.13706000	15.60654000
66.49999623	0.00000000	12.55536000	18.01796000
66.69999622	0.00000000	12.18012000	18.81152000
66.89999620	0.00000000	10.97441000	18.43627000
67.09999619	0.00000000	9.11048200	16.85531000
67.29999618	0.00000000	7.25270600	14.16092000
67.49999617	0.00000000	6.83439900	11.04823000
67.69999616	0.00000000	7.57258800	7.89247000
67.89999615	0.00000000	8.74138700	4.77977300
68.09999613	0.00000000	10.69144000	2.08538400
68.29999612	0.00000000	12.55536000	0.51058070
68.49999611	0.00000000	13.71801000	0.13533460
68.69999610	0.00000000	13.67495000	0.97194880
68.89999609	0.00000000	12.13706000	3.70939900
69.09999607	0.00000000	9.44266700	7.93553100
69.29999606	0.00000000	6.32381900	12.58612000
69.49999605	0.00000000	3.25418300	16.81225000
69.69999604	0.00000000	1.02116100	19.55585000
69.89999603	0.00000000	1.06422200	20.34941000
70.09999601	0.00000000	3.71555100	19.50664000
70.29999600	0.00000000	7.94783400	16.39395000
70.49999599	0.00000000	12.60458000	11.38041000
70.69999598	0.00000000	16.87992000	5.98548200
70.89999597	0.00000000	19.90650000	0.97194880
71.09999596	0.00000000	20.69390000	-2.09153500
71.29999594	0.00000000	18.74385000	-2.50984200
71.49999593	0.00000000	14.88066000	-0.60285430
71.69999592	0.00000000	9.44266700	3.29109200
71.89999591	0.00000000	3.71555100	8.26771600
72.09999590	0.00000000	-0.55979330	13.28125000
72.29999588	0.00000000	-2.47293300	16.76919000
72.49999587	0.00000000	-1.72244100	18.35015000
72.69999586	0.00000000	1.75935000	17.97490000
72.89999585	0.00000000	6.74212600	15.64960000
73.09999584	0.00000000	12.18012000	12.25394000
73.29999582	0.00000000	16.79380000	8.77214500
73.49999581	0.00000000	19.53125000	6.48991100
73.69999580	0.00000000	19.90650000	5.61638700
73.89999579	0.00000000	17.99951000	5.98548200
74.09999578	0.00000000	14.13632000	6.72982200
74.29999577	0.00000000	9.52879000	7.89247000
74.49999575	0.00000000	5.25344500	9.00590400
74.69999574	0.00000000	2.17765700	9.38115100
74.89999573	0.00000000	0.97194880	9.00590400
75.09999572	0.00000000	1.71628900	7.84940900
75.29999571	0.00000000	3.62942900	6.40378900
75.49999569	0.00000000	6.36687900	5.66560000
75.69999568	0.00000000	9.44266700	6.44685000
75.89999567	0.00000000	12.13706000	8.35383800
76.09999566	0.00000000	13.67495000	11.09744000
76.29999565	0.00000000	13.71801000	14.16092000
76.49999563	0.00000000	12.64764000	16.81225000
76.69999562	0.00000000	11.48499000	17.88263000
76.89999561	0.00000000	10.69144000	16.35089000
77.09999560	0.00000000	9.90403500	12.53691000
77.29999559	0.00000000	9.52879000	7.89247000
77.49999558	0.00000000	9.48572700	3.24803100
77.69999556	0.00000000	9.48572700	-0.60285430
77.89999555	0.00000000	9.44266700	-2.50984200
78.09999554	0.00000000	9.06742000	-2.09153500
78.29999553	0.00000000	8.28001900	1.01501000
78.49999552	0.00000000	7.52952700	6.40378900
78.69999550	0.00000000	6.74212600	12.53691000
78.89999549	0.00000000	6.45915300	17.97490000
79.09999548	0.00000000	7.20964500	21.41363000
79.29999547	0.00000000	9.11048200	22.20103000
79.49999546	0.00000000	11.02362000	19.92495000
79.69999544	0.00000000	12.64764000	15.69882000
79.89999543	0.00000000	14.13632000	10.62992000
80.09999542	0.00000000	14.88066000	5.24729300
80.29999541	0.00000000	14.09326000	1.02116100
80.49999540	0.00000000	12.18012000	-0.97810030
80.69999539	0.00000000	9.48572700	-1.02116100
80.89999537	0.00000000	6.79133800	0.55364170
81.09999536	0.00000000	4.83513700	3.66633800
81.29999535	0.00000000	3.71555100	7.89247000
81.49999534	0.00000000	4.13385800	12.16166000
81.69999533	0.00000000	6.36687900	15.64960000
81.89999531	0.00000000	9.06742000	18.01796000
82.09999530	0.00000000	11.39887000	18.76845000
82.29999529	0.00000000	13.34276000	18.01796000
82.49999528	0.00000000	14.09326000	15.69882000
82.69999527	0.00000000	13.76107000	12.62918000
82.89999525	0.00000000	12.60458000	9.47342500
83.09999524	0.00000000	11.06668000	6.31151500
83.29999523	0.00000000	9.48572700	3.19881900
83.49999522	0.00000000	7.94783400	0.55364170
83.69999521	0.00000000	6.79133800	-0.55979330
83.89999520	0.00000000	6.41609200	0.55364170
84.09999518	0.00000000	6.74212600	3.24803100
84.29999517	0.00000000	7.52952700	6.77903500
84.49999516	0.00000000	8.28001900	11.04823000
84.69999515	0.00000000	9.06742000	15.27436000
84.89999514	0.00000000	9.44266700	18.39321000
85.09999512	0.00000000	9.52879000	19.93110000
85.29999511	0.00000000	9.90403500	19.50664000
85.49999510	0.00000000	10.64838000	16.76919000
85.69999509	0.00000000	11.06668000	12.16166000
85.89999508	0.00000000	11.44193000	6.77903500
86.09999506	0.00000000	11.81102000	2.17765700
86.29999505	0.00000000	11.39887000	-0.60285430
86.49999504	0.00000000	10.64838000	-1.35334600
86.69999503	0.00000000	9.44266700	-0.18454720
86.89999502	0.00000000	7.94783400	3.33415300
87.09999501	0.00000000	6.74212600	8.31077700
87.29999499	0.00000000	5.99163300	13.69956000
87.49999498	0.00000000	5.62869100	17.93184000
87.69999497	0.00000000	6.41609200	19.88189000
87.89999496	0.00000000	7.90477300	19.46358000
88.09999495	0.00000000	9.48572700	16.39395000
88.29999493	0.00000000	11.06668000	11.42347000
88.49999492	0.00000000	12.55536000	6.40378900
88.69999491	0.00000000	13.29970000	2.12844500
88.89999490	0.00000000	12.55536000	-0.51673230
89.09999489	0.00000000	11.06668000	-0.51673230
89.29999487	0.00000000	9.48572700	2.17765700
89.49999486	0.00000000	7.94783400	6.72982200
89.69999485	0.00000000	6.79133800	11.74336000
89.89999484	0.00000000	6.41609200	15.60654000
90.09999483	0.00000000	6.79133800	17.92569000
90.29999482	0.00000000	7.90477300	17.88263000
90.49999480	0.00000000	9.06742000	15.23130000
90.69999479	0.00000000	9.86097400	11.00517000
90.89999478	0.00000000	10.64838000	6.40378900
91.09999477	0.00000000	11.02362000	2.54675200
91.29999476	0.00000000	11.06668000	0.63976370
91.49999474	0.00000000	11.02362000	1.01501000
91.69999473	0.00000000	10.64838000	3.70939900
91.89999472	0.00000000	9.90403500	7.93553100
92.09999471	0.00000000	9.52879000	12.53691000
92.29999470	0.00000000	9.48572700	16.35089000
92.49999468	0.00000000	9.48572700	17.88263000
92.69999467	0.00000000	9.48572700	16.76919000
92.89999466	0.00000000	9.44266700	13.69956000
93.09999465	0.00000000	9.01820900	9.47342500
93.29999464	0.00000000	7.90477300	5.24729300
93.49999463	0.00000000	6.79133800	2.17765700
93.69999461	0.00000000	6.41609200	1.01501000
93.89999460	0.00000000	6.79133800	2.17765700
94.09999459	0.00000000	7.94783400	5.24729300
94.29999458	0.00000000	9.52879000	9.47342500
94.49999457	0.00000000	11.44193000	13.65650000
94.69999455	0.00000000	13.39198000	16.35089000
94.89999454	0.00000000	14.51156000	16.71998000
95.09999453	0.00000000	14.88066000	14.85605000
95.29999452	0.00000000	13.67495000	11.38041000
95.49999451	0.00000000	11.02362000	7.56028500
95.69999449	0.00000000	7.94783400	4.08464600
95.89999448	0.00000000	5.21038300	2.17150600
96.09999447	0.00000000	3.29724400	2.17150600
96.29999446	0.00000000	2.50984200	4.08464600
96.49999445	0.00000000	3.29724400	7.51722400
96.69999444	0.00000000	5.25344500	10.96211000
96.89999442	0.00000000	8.37229300	13.65650000
97.09999441	0.00000000	12.22933000	14.81299000
97.29999440	0.00000000	15.67421000	14.07480000
97.49999439	0.00000000	17.99951000	12.21087000
97.69999438	0.00000000	18.37475000	9.89173200
97.89999436	0.00000000	16.83686000	7.93553100
98.09999435	0.00000000	13.76107000	6.40378900
98.29999434	0.00000000	9.86097400	5.61638700
98.49999433	0.00000000	5.99163300	6.02854300
98.69999432	0.00000000	2.50984200	7.10506800
98.89999430	0.00000000	0.59670270	8.67987200
99.09999429	0.00000000	0.59670270	9.79945900
99.29999428	0.00000000	2.50984200	10.62992000
99.49999427	0.00000000	5.99163300	10.95595000
99.69999426	0.00000000	9.86097400	10.62992000
99.89999425	0.00000000	13.76107000	9.89173200
100.09999423	0.00000000	16.79380000	9.56569900
100.29999422	0.00000000	17.99951000	9.89173200
100.49999421	0.00000000	17.25517000	10.62992000
100.69999420	0.00000000	15.29897000	11.00517000
100.89999419	0.00000000	12.22933000	11.00517000
101.09999417	0.00000000	8.74138700	10.58686000
101.29999416	0.00000000	6.04084600	9.42421200
101.49999415	0.00000000	4.04773600	7.89247000
101.69999414	0.00000000	3.29724400	6.36072800
101.89999413	0.00000000	3.67249000	5.19808000
102.09999411	0.00000000	5.21038300	4.87204700
102.29999410	0.00000000	7.52952700	5.66560000
102.49999409	0.00000000	9.86097400	7.93553100
102.69999408	0.00000000	12.22933000	10.62992000
102.89999407	0.00000000	14.13632000	12.95522000
103.09999406	0.00000000	15.29897000	14.85605000
103.29999404	0.00000000	15.25591000	15.23130000
103.49999403	0.00000000	13.76107000	14.11786000
103.69999402	0.00000000	11.44193000	12.11860000
103.89999401	0.00000000	9.15354300	9.05511800
104.09999400	0.00000000	7.16043300	5.66560000
104.29999398	0.00000000	6.04084600	3.70939900
104.49999397	0.00000000	5.57947800	3.29109200
104.69999396	0.00000000	5.99163300	4.08464600
104.89999395	0.00000000	6.74212600	6.36072800
105.09999394	0.00000000	7.94783400	9.05511800
105.29999392	0.00000000	9.48572700	11.38041000
105.49999391	0.00000000	11.02362000	13.32431000
105.69999390	0.00000000	12.13706000	14.07480000
105.89999389	0.00000000	12.13706000	13.69956000
106.09999388	0.00000000	11.02362000	12.11860000
106.29999387	0.00000000	9.52879000	9.51648500
106.49999385	0.00000000	8.37229300	7.19734200
106.69999384	0.00000000	7.94783400	6.02854300
106.89999383	0.00000000	7.94783400	5.61638700
107.09999382	0.00000000	8.37229300	6.40378900
107.29999381	0.00000000	9.48572700	7.89247000
107.49999379	0.00000000	10.59916000	9.47342500
107.69999378	0.00000000	11.02362000	11.00517000
107.89999377	0.00000000	11.02362000	12.11860000
108.09999376	0.00000000	10.64838000	12.11860000
108.29999375	0.00000000	9.86097400	11.00517000
108.49999374	0.00000000	9.06742000	9.47342500
108.69999372	0.00000000	7.90477300	7.89247000
108.89999371	0.00000000	6.83439900	6.40378900
109.09999370	0.00000000	6.79133800	5.66560000
109.29999369	0.00000000	7.52952700	6.40378900
109.49999368	0.00000000	8.32308000	7.89247000
109.69999366	0.00000000	9.52879000	9.47342500
109.89999365	0.00000000	11.02362000	11.00517000
110.09999364	0.00000000	12.13706000	12.16166000
110.29999363	0.00000000	12.18012000	12.53691000
110.49999362	0.00000000	11.44193000	12.16166000
110.69999360	0.00000000	10.64838000	11.00517000
110.89999359	0.00000000	9.48572700	9.47342500
111.09999358	0.00000000	8.37229300	7.93553100
111.29999357	0.00000000	7.94783400	6.77903500
111.49999356	0.00000000	7.90477300	6.35457700
111.69999355	0.00000000	7.94783400	6.35457700
111.89999353	0.00000000	8.37229300	6.77903500
112.09999352	0.00000000	9.48572700	7.93553100
112.29999351	0.00000000	10.59916000	9.42421200
112.49999350	0.00000000	11.02362000	10.58686000
112.69999349	0.00000000	11.02362000	11.00517000
112.89999347	0.00000000	10.64838000	11.04823000
113.09999346	0.00000000	9.90403500	11.00517000
113.29999345	0.00000000	9.52879000	10.62992000
113.49999344	0.00000000	9.44266700	9.89173200
113.69999343	0.00000000	9.11048200	9.47342500
113.89999341	0.00000000	8.74138700	9.05511800
114.09999340	0.00000000	9.11048200	8.35998900
114.29999339	0.00000000	9.44266700	8.31077700
114.49999338	0.00000000	9.48572700	8.63681000
114.69999337	0.00000000	9.52879000	8.26771600
114.89999336	0.00000000	9.90403500	7.93553100
115.09999334	0.00000000	10.64838000	7.89247000
115.29999333	0.00000000	10.97441000	7.89247000
115.49999332	0.00000000	10.64838000	7.93553100
115.69999331	0.00000000	9.90403500	8.31077700
115.89999330	0.00000000	9.52879000	9.05511800
116.09999328	0.00000000	9.48572700	9.47342500
116.29999327	0.00000000	9.48572700	9.89173200
116.49999326	0.00000000	9.44266700	10.62992000
116.69999325	0.00000000	9.11048200	11.00517000
116.89999324	0.00000000	8.74138700	11.04823000
117.09999322	0.00000000	9.11048200	11.00517000
117.29999321	0.00000000	9.48572700	10.58686000
117.49999320	0.00000000	9.90403500	9.47342500
117.69999319	0.00000000	10.64838000	8.31077700
117.89999318	0.00000000	11.06668000	7.56028500
118.09999317	0.00000000	11.44193000	7.14812900
118.29999315	0.00000000	11.76181000	7.56028500
118.49999314	0.00000000	11.02362000	8.26771600
118.69999313	0.00000000	9.90403500	9.05511800
118.89999312	0.00000000	9.11048200	9.43036400
119.09999311	0.00000000	8.32308000	9.51648500
119.29999309	0.00000000	7.94783400	9.89173200
119.49999308	0.00000000	7.90477300	10.62992000
119.69999307	0.00000000	7.94783400	11.00517000
119.89999306	0.00000000	8.37229300	11.00517000
120.09999305	0.00000000	9.48572700	10.62992000
120.29999303	0.00000000	10.64838000	9.89173200
120.49999302	0.00000000	11.44193000	9.51648500
120.69999301	0.00000000	12.22933000	9.43036400
120.89999300	0.00000000	12.55536000	9.05511800
121.09999299	0.00000000	12.18012000	8.31077700
121.29999298	0.00000000	11.02362000	7.93553100
121.49999296	0.00000000	9.52879000	7.89247000
121.69999295	0.00000000	8.32308000	7.89247000
121.89999294	0.00000000	7.52952700	7.93553100
122.09999293	0.00000000	6.74212600	8.31077700
122.29999292	0.00000000	6.41609200	9.09817800
122.49999290	0.00000000	6.79133800	9.84867000
122.69999289	0.00000000	7.94783400	10.62992000
122.89999288	0.00000000	9.44266700	11.00517000
123.09999287	0.00000000	10.59916000	11.04823000
123.29999286	0.00000000	11.06668000	11.00517000
123.49999284	0.00000000	11.44193000	10.62992000
123.69999283	0.00000000	11.81102000	9.84867000
123.89999282	0.00000000	11.44193000	9.09817800
124.09999281	0.00000000	11.06668000	8.31077700
124.29999280	0.00000000	10.64838000	7.93553100
124.49999279	0.00000000	9.86097400	7.89247000
124.69999277	0.00000000	9.11048200	7.89247000
124.89999276	0.00000000	8.32308000	7.93553100
125.09999275	0.00000000	7.90477300	8.31077700
125.29999274	0.00000000	7.52952700	9.05511800
125.49999273	0.00000000	7.20964500	9.47342500
125.69999271	0.00000000	7.94783400	9.89173200
125.89999270	0.00000000	9.06742000	10.62992000
126.09999269	0.00000000	9.86097400	11.00517000
126.29999268	0.00000000	10.69144000	11.00517000
126.49999267	0.00000000	11.39887000	10.62992000
126.69999265	0.00000000	11.81102000	9.89173200
126.89999264	0.00000000	11.44193000	9.47342500
127.09999263	0.00000000	11.06668000	9.05511800
127.29999262	0.00000000	10.59916000	8.31077700
127.49999261	0.00000000	9.48572700	7.93553100
127.69999260	0.00000000	8.32308000	7.93553100
127.89999258	0.00000000	7.57258800	8.31077700
128.09999257	0.00000000	7.16043300	9.05511800
128.29999256	0.00000000	7.57258800	9.43036400
128.49999255	0.00000000	8.32308000	9.47342500
128.69999254	0.00000000	9.48572700	9.51648500
128.89999252	0.00000000	10.64838000	9.84867000
129.09999251	0.00000000	11.44193000	10.21161000
129.29999250	0.00000000	12.18012000	9.84867000
129.49999249	0.00000000	12.13706000	9.47342500
129.69999248	0.00000000	11.02362000	9.05511800
129.89999246	0.00000000	9.52879000	8.31077700
130.09999245	0.00000000	8.37229300	7.93553100
130.29999244	0.00000000	7.94783400	7.93553100
130.49999243	0.00000000	7.90477300	8.31077700
130.69999242	0.00000000	7.94783400	9.05511800
130.89999241	0.00000000	8.37229300	9.47342500
131.09999239	0.00000000	9.48572700	9.84867000
131.29999238	0.00000000	10.59916000	10.21161000
131.49999237	0.00000000	11.02362000	9.84867000
131.69999236	0.00000000	11.06668000	9.47342500
131.89999235	0.00000000	11.06668000	9.05511800
132.09999233	0.00000000	11.02362000	8.31077700
132.29999232	0.00000000	10.64838000	7.93553100
132.49999231	0.00000000	9.86097400	7.89247000
132.69999230	0.00000000	9.15354300	7.89247000
132.89999229	0.00000000	8.74138700	7.93553100
133.09999227	0.00000000	9.11048200	8.35998900
133.29999226	0.00000000	9.44266700	9.47342500
133.49999225	0.00000000	9.48572700	10.58686000
133.69999224	0.00000000	9.52879000	11.00517000
133.89999223	0.00000000	9.86097400	11.04823000
134.09999222	0.00000000	10.23007000	11.00517000
134.29999220	0.00000000	9.86097400	10.58686000
134.49999219	0.00000000	9.52879000	9.47342500
134.69999218	0.00000000	9.48572700	8.31077700
134.89999217	0.00000000	9.48572700	7.56028500
135.09999216	0.00000000	9.52879000	7.14812900
135.29999214	0.00000000	9.90403500	7.51722400
135.49999213	0.00000000	10.64838000	7.89247000
135.69999212	0.00000000	11.02362000	8.31077700
135.89999211	0.00000000	11.02362000	9.05511800
136.09999210	0.00000000	10.64838000	9.47342500
136.29999208	0.00000000	9.86097400	9.89173200
136.49999207	0.00000000	9.11048200	10.62992000
136.69999206	0.00000000	8.37229300	10.95595000
136.89999205	0.00000000	8.37229300	10.62992000
137.09999204	0.00000000	9.06742000	9.89173200
137.29999203	0.00000000	9.48572700	9.47342500
137.49999201	0.00000000	9.90403500	9.05511800
137.69999200	0.00000000	10.64838000	8.31077700
137.89999199	0.00000000	11.02362000	7.93553100
138.09999198	0.00000000	11.06668000	7.89247000
138.29999197	0.00000000	11.02362000	7.89247000
138.49999195	0.00000000	10.64838000	7.89247000
138.69999194	0.00000000	9.90403500	7.93553100
138.89999193	0.00000000	9.48572700	8.35998900
139.09999192	0.00000000	9.06742000	9.47342500
139.29999191	0.00000000	8.37229300	10.58686000
139.49999189	0.00000000	8.32308000	11.00517000
139.69999188	0.00000000	8.69217500	11.04823000
139.89999187	0.00000000	8.74138700	11.04823000
140.09999186	0.00000000	9.52879000	11.00517000
140.29999185	0.00000000	10.59916000	10.58686000
140.49999184	0.00000000	11.02362000	9.47342500
140.69999182	0.00000000	11.02362000	8.31077700
140.89999181	0.00000000	10.64838000	7.56028500
141.09999180	0.00000000	9.90403500	7.14812900
141.29999179	0.00000000	9.52879000	7.51722400
141.49999178	0.00000000	9.48572700	7.89247000
141.69999176	0.00000000	9.48572700	8.35998900
141.89999175	0.00000000	9.48572700	9.47342500
142.09999174	0.00000000	9.52879000	10.62992000
142.29999173	0.00000000	9.90403500	11.42347000
142.49999172	0.00000000	10.64838000	12.16166000
142.69999170	0.00000000	11.02362000	12.16166000
142.89999169	0.00000000	11.02362000	11.38041000
143.09999168	0.00000000	10.64838000	10.25467000
143.29999167	0.00000000	9.90403500	8.72908400
143.49999166	0.00000000	9.52879000	7.93553100
143.69999165	0.00000000	9.48572700	7.47416300
143.89999163	0.00000000	9.48572700	6.77903500
144.09999162	0.00000000	9.48572700	6.77903500
144.29999161	0.00000000	9.48572700	7.56028500
144.49999160	0.00000000	9.52879000	8.68602300
144.69999159	0.00000000	9.90403500	10.21161000
144.89999157	0.00000000	10.64838000	10.95595000
145.09999156	0.00000000	11.02362000	11.04823000
145.29999155	0.00000000	11.02362000	11.00517000
145.49999154	0.00000000	10.64838000	10.62992000
145.69999153	0.00000000	9.90403500	9.89173200
145.89999151	0.00000000	9.48572700	9.47342500
146.09999150	0.00000000	9.11048200	9.05511800
146.29999149	0.00000000	8.74138700	8.31077700
146.49999148	0.00000000	9.11048200	7.93553100
146.69999147	0.00000000	9.48572700	7.89247000
146.89999146	0.00000000	9.90403500	7.93553100
147.09999144	0.00000000	10.64838000	8.31077700
147.29999143	0.00000000	11.02362000	9.05511800
147.49999142	0.00000000	11.06668000	9.43036400
147.69999141	0.00000000	11.02362000	9.47342500
147.89999140	0.00000000	10.64838000	9.47342500
148.09999138	0.00000000	9.90403500	9.47342500
148.29999137	0.00000000	9.52879000	9.47342500
148.49999136	0.00000000	9.48572700	9.47342500
148.69999135	0.00000000	9.48572700	9.47342500
148.89999134	0.00000000	9.48572700	9.43036400
149.09999132	0.00000000	9.48572700	9.05511800
149.29999131	0.00000000	9.52879000	8.35998900
149.49999130	0.00000000	9.90403500	8.31077700
149.69999129	0.00000000	10.64838000	8.67987200
149.89999128	0.00000000	11.02362000	8.68602300
150.09999127	0.00000000	11.06668000	9.09817800
150.29999125	0.00000000	11.06668000	9.47342500
150.49999124	0.00000000	11.02362000	9.84867000
150.69999123	0.00000000	10.64838000	10.21161000
150.89999122	0.00000000	9.90403500	9.84867000
151.09999121	0.00000000	9.52879000	9.51648500
151.29999119	0.00000000	9.48572700	9.47342500
151.49999118	0.00000000	9.48572700	9.47342500
151.69999117	0.00000000	9.48572700	9.47342500
151.89999116	0.00000000	9.48572700	9.47342500
152.09999115	0.00000000	9.52879000	9.47342500
152.29999113	0.00000000	9.90403500	9.47342500
152.49999112	0.00000000	10.64838000	9.47342500
152.69999111	0.00000000	11.02362000	9.47342500
152.89999110	0.00000000	11.06668000	9.47342500
153.09999109	0.00000000	11.06668000	9.47342500
153.29999108	0.00000000	11.02362000	9.47342500
153.49999106	0.00000000	10.64838000	9.47342500
153.69999105	0.00000000	9.90403500	9.47342500
153.89999104	0.00000000	9.52879000	9.47342500
154.09999103	0.00000000	9.44266700	9.47342500
154.29999102	0.00000000	9.11048200	9.47342500
154.49999100	0.00000000	8.74138700	9.47342500
154.69999099	0.00000000	9.11048200	9.47342500
154.89999098	0.00000000	9.44266700	9.47342500
155.09999097	0.00000000	9.48572700	9.43036400
155.29999096	0.00000000	9.52879000	9.09817800
155.49999094	0.00000000	9.90403500	8.72908400
155.69999093	0.00000000	10.64838000	9.09817800
155.89999092	0.00000000	11.02362000	9.43036400
156.09999091	0.00000000	11.06668000	9.47342500
156.29999090	0.00000000	11.02362000	9.47342500
156.49999089	0.00000000	10.64838000	9.47342500
156.69999087	0.00000000	9.90403500	9.47342500
156.89999086	0.00000000	9.48572700	9.47342500
157.09999085	0.00000000	9.11048200	9.47342500
157.29999084	0.00000000	8.74138700	9.47342500
157.49999083	0.00000000	9.11048200	9.47342500
157.69999081	0.00000000	9.44266700	9.47342500
157.89999080	0.00000000	9.48572700	9.47342500
158.09999079	0.00000000	9.52879000	9.47342500
158.29999078	0.00000000	9.90403500	9.43036400
158.49999077	0.00000000	10.64838000	9.05511800
158.69999075	0.00000000	11.02362000	8.35998900
158.89999074	0.00000000	11.06668000	8.35998900
159.09999073	0.00000000	11.02362000	9.05511800
159.29999072	0.00000000	10.64838000	9.43036400
159.49999071	0.00000000	9.90403500	9.47342500
159.69999070	0.00000000	9.52879000	9.47342500
159.89999068	0.00000000	9.48572700	9.51648500
160.09999067	0.00000000	9.48572700	9.84867000
160.29999066	0.00000000	9.48572700	10.21161000
160.49999065	0.00000000	9.48572700	9.84867000
160.69999064	0.00000000	9.48572700	9.51648500
160.89999062	0.00000000	9.48572700	9.47342500
161.09999061	0.00000000	9.48572700	9.43036400
161.29999060	0.00000000	9.48572700	9.05511800
161.49999059	0.00000000	9.52879000	8.31077700
161.69999058	0.00000000	9.90403500	7.98474400
161.89999056	0.00000000	10.64838000	8.26771600
162.09999055	0.00000000	11.02362000	8.67987200
162.29999054	0.00000000	11.06668000	8.68602300
162.49999053	0.00000000	11.02362000	9.09817800
162.69999052	0.00000000	10.69144000	9.43036400
162.89999051	0.00000000	10.27928000	9.47342500
163.09999049	0.00000000	10.27313000	9.47342500
163.29999048	0.00000000	9.86097400	9.47342500
163.49999047	0.00000000	9.52879000	9.47342500
163.69999046	0.00000000	9.48572700	9.47342500
163.89999045	0.00000000	9.48572700	9.47342500
164.09999043	0.00000000	9.48572700	9.43036400
164.29999042	0.00000000	9.48572700	9.09817800
164.49999041	0.00000000	9.52879000	8.72908400
164.69999040	0.00000000	9.90403500	9.09817800
164.89999039	0.00000000	10.64838000	9.43036400
165.09999037	0.00000000	11.02362000	9.47342500
165.29999036	0.00000000	11.06668000	9.47342500
165.49999035	0.00000000	11.06668000	9.47342500
165.69999034	0.00000000	11.02362000	9.47342500
165.89999033	0.00000000	10.64838000	9.47342500
166.09999032	0.00000000	9.90403500	9.47342500
166.29999030	0.00000000	9.52879000	9.47342500
166.49999029	0.00000000	9.48572700	9.47342500
166.69999028	0.00000000	9.48572700	9.47342500
166.89999027	0.00000000	9.48572700	9.47342500
167.09999026	0.00000000	9.48572700	9.47342500
167.29999024	0.00000000	9.48572700	9.47342500
167.49999023	0.00000000	9.48572700	9.47342500
167.69999022	0.00000000	9.52879000	9.47342500
167.89999021	0.00000000	9.90403500	9.47342500
168.09999020	0.00000000	10.64838000	9.47342500
168.29999018	0.00000000	11.02362000	9.47342500
168.49999017	0.00000000	11.06668000	9.47342500
168.69999016	0.00000000	11.02362000	9.47342500
168.89999015	0.00000000	10.64838000	9.47342500
169.09999014	0.00000000	9.90403500	9.47342500
169.29999013	0.00000000	9.52879000	9.47342500
169.49999011	0.00000000	9.48572700	9.47342500
169.69999010	0.00000000	9.48572700	9.47342500
169.89999009	0.00000000	9.48572700	9.47342500
170.09999008	0.00000000	9.48572700	9.47342500
170.29999007	0.00000000	9.48572700	9.47342500
170.49999005	0.00000000	9.48572700	9.47342500
170.69999004	0.00000000	9.48572700	9.47342500
170.89999003	0.00000000	9.48572700	9.47342500
171.09999002	0.00000000	9.52879000	9.47342500
171.29999001	0.00000000	9.90403500	9.47342500
171.49998999	0.00000000	10.64838000	9.43036400
171.69998998	0.00000000	11.02362000	9.09817800
171.89998997	0.00000000	11.02362000	8.72908400
172.09998996	0.00000000	10.64838000	9.09817800
172.29998995	0.00000000	9.90403500	9.43036400
172.49998994	0.00000000	9.52879000	9.47342500
172.69998992	0.00000000	9.48572700	9.47342500
172.89998991	0.00000000	9.48572700	9.47342500
173.09998990	0.00000000	9.48572700	9.47342500
173.29998989	0.00000000	9.48572700	9.47342500
173.49998988	0.00000000	9.48572700	9.47342500
173.69998986	0.00000000	9.48572700	9.47342500
173.89998985	0.00000000	9.48572700	9.47342500
174.09998984	0.00000000	9.52879000	9.47342500
174.29998983	0.00000000	9.90403500	9.47342500
174.49998982	0.00000000	10.64838000	9.47342500
174.69998980	0.00000000	10.97441000	9.47342500
174.89998979	0.00000000	10.64838000	9.47342500
175.09998978	0.00000000	9.90403500	9.47342500
175.29998977	0.00000000	9.52879000	9.47342500
175.49998976	0.00000000	9.48572700	9.47342500
175.69998975	0.00000000	9.48572700	9.47342500
175.89998973	0.00000000	9.48572700	9.47342500
176.09998972	0.00000000	9.48572700	9.47342500
176.29998971	0.00000000	9.52879000	9.47342500
176.49998970	0.00000000	9.86097400	9.47342500
176.69998969	0.00000000	10.23007000	9.47342500
176.89998967	0.00000000	9.90403500	9.47342500
177.09998966	0.00000000	9.90403500	9.47342500
177.29998965	0.00000000	10.23007000	9.47342500
177.49998964	0.00000000	9.86097400	9.47342500
177.69998963	0.00000000	9.52879000	9.47342500
177.89998961	0.00000000	9.48572700	9.47342500
178.09998960	0.00000000	9.48572700	9.47342500
178.29998959	0.00000000	9.48572700	9.47342500
178.49998958	0.00000000	9.48572700	9.47342500
178.69998957	0.00000000	9.48572700	9.47342500
178.89998956	0.00000000	9.48572700	9.47342500
179.09998954	0.00000000	9.52879000	9.47342500
179.29998953	0.00000000	9.90403500	9.47342500
179.49998952	0.00000000	10.59916000	9.47342500
179.69998951	0.00000000	10.59916000	9.47342500
179.89998950	0.00000000	9.95324800	9.47342500
180.09998948	0.00000000	9.90403500	9.43036400
180.29998947	0.00000000	10.27313000	9.09817800
180.49998946	0.00000000	10.23622000	8.72908400
180.69998945	0.00000000	10.27313000	9.09817800
180.89998944	0.00000000	9.86097400	9.43036400
181.09998942	0.00000000	9.52879000	9.47342500
181.29998941	0.00000000	9.48572700	9.47342500
181.49998940	0.00000000	9.48572700	9.47342500
181.69998939	0.00000000	9.48572700	9.47342500
181.89998938	0.00000000	9.48572700	9.47342500
182.09998937	0.00000000	9.52879000	9.47342500
182.29998935	0.00000000	9.90403500	9.47342500
182.49998934	0.00000000	10.59916000	9.47342500
182.69998933	0.00000000	10.64838000	9.47342500
182.89998932	0.00000000	10.27928000	9.43036400
183.09998931	0.00000000	10.31619000	9.05511800
183.29998929	0.00000000	10.27928000	8.35998900
183.49998928	0.00000000	10.64838000	8.35998900
183.69998927	0.00000000	10.59916000	9.05511800
183.89998926	0.00000000	9.90403500	9.43036400
184.09998925	0.00000000	9.52879000	9.47342500
184.29998923	0.00000000	9.48572700	9.47342500
184.49998922	0.00000000	9.48572700	9.47342500
184.69998921	0.00000000	9.48572700	9.51648500
184.89998920	0.00000000	9.48572700	9.84867000
185.09998919	0.00000000	9.48572700	10.25467000
185.29998918	0.00000000	9.52879000	10.21776000
185.49998916	0.00000000	9.86097400	10.25467000
185.69998915	0.00000000	10.27313000	9.84867000
185.89998914	0.00000000	10.27928000	9.51648500
186.09998913	0.00000000	10.64838000	9.43036400
186.29998912	0.00000000	10.64838000	9.05511800
186.49998910	0.00000000	10.27928000	8.31077700
186.69998909	0.00000000	10.27313000	7.98474400
186.89998908	0.00000000	9.86097400	8.31077700
187.09998907	0.00000000	9.52879000	9.05511800
187.29998906	0.00000000	9.48572700	9.43036400
187.49998904	0.00000000	9.48572700	9.47342500
187.69998903	0.00000000	9.48572700	9.47342500
187.89998902	0.00000000	9.48572700	9.47342500
188.09998901	0.00000000	9.48572700	9.47342500
188.29998900	0.00000000	9.52879000	9.47342500
188.49998899	0.00000000	9.90403500	9.47342500
188.69998897	0.00000000	10.64838000	9.47342500
188.89998896	0.00000000	11.02362000	9.43036400
189.09998895	0.00000000	11.06668000	9.05511800
189.29998894	0.00000000	11.06668000	8.31077700
189.49998893	0.00000000	11.06668000	7.93553100
189.69998891	0.00000000	11.02362000	7.93553100
189.89998890	0.00000000	10.64838000	8.31077700
190.09998889	0.00000000	9.90403500	9.05511800
190.29998888	0.00000000	9.52879000	9.43036400
190.49998887	0.00000000	9.48572700	9.47342500
190.69998885	0.00000000	9.48572700	9.47342500
190.89998884	0.00000000	9.48572700	9.47342500
191.09998883	0.00000000	9.52879000	9.47342500
191.29998882	0.00000000	9.90403500	9.47342500
191.49998881	0.00000000	10.64838000	9.47342500
191.69998880	0.00000000	11.02362000	9.47342500
191.89998878	0.00000000	11.06668000	9.47342500
192.09998877	0.00000000	11.06668000	9.47342500
192.29998876	0.00000000	11.06668000	9.47342500
192.49998875	0.00000000	11.02362000	9.47342500
192.69998874	0.00000000	10.64838000	9.47342500
192.89998872	0.00000000	9.90403500	9.47342500
193.09998871	0.00000000	9.52879000	9.47342500
193.29998870	0.00000000	9.48572700	9.47342500
193.49998869	0.00000000	9.48572700	9.47342500
193.69998868	0.00000000	9.48572700	9.47342500
193.89998866	0.00000000	9.48572700	9.47342500
194.09998865	0.00000000	9.48572700	9.47342500
194.29998864	0.00000000	9.52879000	9.47342500
194.49998863	0.00000000	9.90403500	9.47342500
194.69998862	0.00000000	10.64838000	9.47342500
194.89998861	0.00000000	11.02362000	9.47342500
195.09998859	0.00000000	11.02362000	9.47342500
195.29998858	0.00000000	10.64838000	9.43036400
195.49998857	0.00000000	9.90403500	9.05511800
195.69998856	0.00000000	9.52879000	8.35998900
195.89998855	0.00000000	9.48572700	8.35998900
196.09998853	0.00000000	9.48572700	9.00590400
